Study Name	031-0305W
Sample Name	2024-02-22
Run Name	spot01
Operator	Angus+Elena
Date	2/22/2024
Time	14:00
Sign	FIX
Grating Spacing	03.40um
Channel	3
Number Traces	10000
Files in Batch	1
Batch Number	75
dt	50.000001E-12
time stamp (ms)	3:17:11 PM
	
Time	Amplitude
0.000000E+0	4.145299E-3
5.000000E-11	4.145299E-3
1.000000E-10	4.162429E-3
1.500000E-10	4.170993E-3
2.000000E-10	4.128170E-3
2.500000E-10	4.119605E-3
3.000000E-10	4.145299E-3
3.500000E-10	4.153864E-3
4.000000E-10	4.128170E-3
4.500000E-10	4.145299E-3
5.000000E-10	4.222382E-3
5.500000E-10	4.299464E-3
6.000000E-10	4.367982E-3
6.500000E-10	4.470759E-3
7.000000E-10	4.590665E-3
7.500000E-10	4.719136E-3
8.000000E-10	4.839042E-3
8.500000E-10	4.941819E-3
9.000000E-10	5.078855E-3
9.500000E-10	5.258714E-3
1.000000E-9	5.387185E-3
1.050000E-9	5.464268E-3
1.100000E-9	5.541350E-3
1.150000E-9	5.584174E-3
1.200000E-9	5.609868E-3
1.250000E-9	5.661256E-3
1.300000E-9	5.729774E-3
1.350000E-9	5.695515E-3
1.400000E-9	5.609868E-3
1.450000E-9	5.558480E-3
1.500000E-9	5.558480E-3
1.550000E-9	5.549915E-3
1.600000E-9	5.489962E-3
1.650000E-9	5.404315E-3
1.700000E-9	5.327232E-3
1.750000E-9	5.250149E-3
1.800000E-9	5.104549E-3
1.850000E-9	4.958949E-3
1.900000E-9	4.890431E-3
1.950000E-9	4.779089E-3
2.000000E-9	4.590665E-3
2.050000E-9	4.419371E-3
2.100000E-9	4.308029E-3
2.150000E-9	4.188123E-3
2.200000E-9	4.093911E-3
2.250000E-9	4.059652E-3
2.300000E-9	4.051087E-3
2.350000E-9	4.008264E-3
2.400000E-9	4.016828E-3
2.450000E-9	4.059652E-3
2.500000E-9	4.093911E-3
2.550000E-9	4.145299E-3
2.600000E-9	4.239511E-3
2.650000E-9	4.350853E-3
2.700000E-9	4.453630E-3
2.750000E-9	4.522147E-3
2.800000E-9	4.590665E-3
2.850000E-9	4.684877E-3
2.900000E-9	4.727701E-3
2.950000E-9	4.710571E-3
3.000000E-9	4.710571E-3
3.050000E-9	4.753395E-3
3.100000E-9	4.787654E-3
3.150000E-9	4.787654E-3
3.200000E-9	4.779089E-3
3.250000E-9	4.761960E-3
3.300000E-9	4.779089E-3
3.350000E-9	4.804783E-3
3.400000E-9	4.770525E-3
3.450000E-9	4.676312E-3
3.500000E-9	4.624924E-3
3.550000E-9	4.599230E-3
3.600000E-9	4.530712E-3
3.650000E-9	4.470759E-3
3.700000E-9	4.487888E-3
3.750000E-9	4.513583E-3
3.800000E-9	4.470759E-3
3.850000E-9	4.436500E-3
3.900000E-9	4.462194E-3
3.950000E-9	4.470759E-3
4.000000E-9	4.453630E-3
4.050000E-9	4.470759E-3
4.100000E-9	4.513583E-3
4.150000E-9	4.505018E-3
4.200000E-9	4.505018E-3
4.250000E-9	4.556406E-3
4.300000E-9	4.564971E-3
4.350000E-9	4.496453E-3
4.400000E-9	4.470759E-3
4.450000E-9	4.522147E-3
4.500000E-9	4.573536E-3
4.550000E-9	4.599230E-3
4.600000E-9	4.607795E-3
4.650000E-9	4.599230E-3
4.700000E-9	4.599230E-3
4.750000E-9	4.599230E-3
4.800000E-9	4.556406E-3
4.850000E-9	4.539277E-3
4.900000E-9	4.556406E-3
4.950000E-9	4.487888E-3
5.000000E-9	4.359417E-3
5.050000E-9	4.290900E-3
5.100000E-9	4.299464E-3
5.150000E-9	4.342288E-3
5.200000E-9	4.427935E-3
5.250000E-9	4.496453E-3
5.300000E-9	4.522147E-3
5.350000E-9	4.590665E-3
5.400000E-9	4.710571E-3
5.450000E-9	4.821913E-3
5.500000E-9	5.001772E-3
5.550000E-9	5.335797E-3
5.600000E-9	5.866810E-3
5.650000E-9	6.731848E-3
5.700000E-9	8.162158E-3
5.750000E-9	1.029478E-2
5.800000E-9	1.330100E-2
5.850000E-9	1.741207E-2
5.900000E-9	2.279072E-2
5.950000E-9	2.943695E-2
6.000000E-9	3.733363E-2
6.050000E-9	4.642081E-2
6.100000E-9	5.661283E-2
6.150000E-9	6.760138E-2
6.200000E-9	7.894965E-2
6.250000E-9	9.026366E-2
6.300000E-9	1.012008E-1
6.350000E-9	1.114528E-1
6.400000E-9	1.207455E-1
6.450000E-9	1.289505E-1
6.500000E-9	1.360678E-1
6.550000E-9	1.421745E-1
6.600000E-9	1.473904E-1
6.650000E-9	1.517499E-1
6.700000E-9	1.554156E-1
6.750000E-9	1.585759E-1
6.800000E-9	1.612567E-1
6.850000E-9	1.634664E-1
6.900000E-9	1.652993E-1
6.950000E-9	1.666696E-1
7.000000E-9	1.673890E-1
7.050000E-9	1.674833E-1
7.100000E-9	1.669009E-1
7.150000E-9	1.654534E-1
7.200000E-9	1.631495E-1
7.250000E-9	1.601347E-1
7.300000E-9	1.564690E-1
7.350000E-9	1.521952E-1
7.400000E-9	1.475617E-1
7.450000E-9	1.427483E-1
7.500000E-9	1.378921E-1
7.550000E-9	1.332672E-1
7.600000E-9	1.290105E-1
7.650000E-9	1.251050E-1
7.700000E-9	1.217476E-1
7.750000E-9	1.190240E-1
7.800000E-9	1.168914E-1
7.850000E-9	1.153326E-1
7.900000E-9	1.143391E-1
7.950000E-9	1.137995E-1
8.000000E-9	1.136025E-1
8.050000E-9	1.138252E-1
8.100000E-9	1.144505E-1
8.150000E-9	1.154183E-1
8.200000E-9	1.167201E-1
8.250000E-9	1.183046E-1
8.300000E-9	1.200604E-1
8.350000E-9	1.220559E-1
8.400000E-9	1.242999E-1
8.450000E-9	1.266552E-1
8.500000E-9	1.290105E-1
8.550000E-9	1.313572E-1
8.600000E-9	1.334984E-1
8.650000E-9	1.352970E-1
8.700000E-9	1.367530E-1
8.750000E-9	1.378150E-1
8.800000E-9	1.382775E-1
8.850000E-9	1.381148E-1
8.900000E-9	1.374382E-1
8.950000E-9	1.362391E-1
9.000000E-9	1.345005E-1
9.050000E-9	1.323336E-1
9.100000E-9	1.298413E-1
9.150000E-9	1.270235E-1
9.200000E-9	1.240173E-1
9.250000E-9	1.209596E-1
9.300000E-9	1.179277E-1
9.350000E-9	1.149815E-1
9.400000E-9	1.121722E-1
9.450000E-9	1.094915E-1
9.500000E-9	1.070248E-1
9.550000E-9	1.049179E-1
9.600000E-9	1.031279E-1
9.650000E-9	1.016462E-1
9.700000E-9	1.006013E-1
9.750000E-9	9.999319E-2
9.800000E-9	9.970199E-2
9.850000E-9	9.982190E-2
9.900000E-9	1.004471E-1
9.950000E-9	1.014749E-1
1.000000E-8	1.028367E-1
1.005000E-8	1.045582E-1
1.010000E-8	1.065366E-1
1.015000E-8	1.086521E-1
1.020000E-8	1.108961E-1
1.025000E-8	1.132600E-1
1.030000E-8	1.155125E-1
1.035000E-8	1.175680E-1
1.040000E-8	1.194009E-1
1.045000E-8	1.209340E-1
1.050000E-8	1.221501E-1
1.055000E-8	1.230152E-1
1.060000E-8	1.234349E-1
1.065000E-8	1.233064E-1
1.070000E-8	1.227582E-1
1.075000E-8	1.218589E-1
1.080000E-8	1.206171E-1
1.085000E-8	1.189983E-1
1.090000E-8	1.170627E-1
1.095000E-8	1.148958E-1
1.100000E-8	1.125748E-1
1.105000E-8	1.101424E-1
1.110000E-8	1.076415E-1
1.115000E-8	1.051577E-1
1.120000E-8	1.026825E-1
1.125000E-8	1.002330E-1
1.130000E-8	9.794622E-2
1.135000E-8	9.582217E-2
1.140000E-8	9.385228E-2
1.145000E-8	9.213077E-2
1.150000E-8	9.072615E-2
1.155000E-8	8.959561E-2
1.160000E-8	8.878196E-2
1.165000E-8	8.840511E-2
1.170000E-8	8.845650E-2
1.175000E-8	8.885904E-2
1.180000E-8	8.971551E-2
1.185000E-8	9.103448E-2
1.190000E-8	9.279025E-2
1.195000E-8	9.488005E-2
1.200000E-8	9.727817E-2
1.205000E-8	9.995893E-2
1.210000E-8	1.027939E-1
1.215000E-8	1.056031E-1
1.220000E-8	1.082667E-1
1.225000E-8	1.107847E-1
1.230000E-8	1.130801E-1
1.235000E-8	1.150072E-1
1.240000E-8	1.164546E-1
1.245000E-8	1.173882E-1
1.250000E-8	1.177222E-1
1.255000E-8	1.174139E-1
1.260000E-8	1.165231E-1
1.265000E-8	1.150072E-1
1.270000E-8	1.128488E-1
1.275000E-8	1.100910E-1
1.280000E-8	1.068022E-1
1.285000E-8	1.030765E-1
1.290000E-8	9.907676E-2
1.295000E-8	9.494000E-2
1.300000E-8	9.079467E-2
1.305000E-8	8.677781E-2
1.310000E-8	8.317206E-2
1.315000E-8	8.003737E-2
1.320000E-8	7.739943E-2
1.325000E-8	7.544667E-2
1.330000E-8	7.438465E-2
1.335000E-8	7.410201E-2
1.340000E-8	7.447886E-2
1.345000E-8	7.556658E-2
1.350000E-8	7.738230E-2
1.355000E-8	7.969478E-2
1.360000E-8	8.235841E-2
1.365000E-8	8.533894E-2
1.370000E-8	8.850789E-2
1.375000E-8	9.174536E-2
1.380000E-8	9.499139E-2
1.385000E-8	9.815177E-2
1.390000E-8	1.011323E-1
1.395000E-8	1.038987E-1
1.400000E-8	1.063739E-1
1.405000E-8	1.084637E-1
1.410000E-8	1.101681E-1
1.415000E-8	1.114357E-1
1.420000E-8	1.121037E-1
1.425000E-8	1.121294E-1
1.430000E-8	1.114699E-1
1.435000E-8	1.100567E-1
1.440000E-8	1.078813E-1
1.445000E-8	1.050378E-1
1.450000E-8	1.015520E-1
1.455000E-8	9.748372E-2
1.460000E-8	9.303007E-2
1.465000E-8	8.838798E-2
1.470000E-8	8.373733E-2
1.475000E-8	7.934363E-2
1.480000E-8	7.541242E-2
1.485000E-8	7.214069E-2
1.490000E-8	6.963979E-2
1.495000E-8	6.796967E-2
1.500000E-8	6.719884E-2
1.505000E-8	6.737870E-2
1.510000E-8	6.843216E-2
1.515000E-8	7.015367E-2
1.520000E-8	7.240620E-2
1.525000E-8	7.508696E-2
1.530000E-8	7.806748E-2
1.535000E-8	8.109083E-2
1.540000E-8	8.405423E-2
1.545000E-8	8.687202E-2
1.550000E-8	8.942431E-2
1.555000E-8	9.164258E-2
1.560000E-8	9.362103E-2
1.565000E-8	9.539393E-2
1.570000E-8	9.696984E-2
1.575000E-8	9.834020E-2
1.580000E-8	9.951357E-2
1.585000E-8	1.004985E-1
1.590000E-8	1.012265E-1
1.595000E-8	1.016291E-1
1.600000E-8	1.016547E-1
1.605000E-8	1.012351E-1
1.610000E-8	1.003187E-1
1.615000E-8	9.881982E-2
1.620000E-8	9.668720E-2
1.625000E-8	9.393793E-2
1.630000E-8	9.071759E-2
1.635000E-8	8.706045E-2
1.640000E-8	8.309498E-2
1.645000E-8	7.904386E-2
1.650000E-8	7.513834E-2
1.655000E-8	7.152403E-2
1.660000E-8	6.838934E-2
1.665000E-8	6.592270E-2
1.670000E-8	6.418406E-2
1.675000E-8	6.325050E-2
1.680000E-8	6.316485E-2
1.685000E-8	6.387572E-2
1.690000E-8	6.528891E-2
1.695000E-8	6.727592E-2
1.700000E-8	6.966548E-2
1.705000E-8	7.232911E-2
1.710000E-8	7.514691E-2
1.715000E-8	7.795614E-2
1.720000E-8	8.064547E-2
1.725000E-8	8.320632E-2
1.730000E-8	8.553593E-2
1.735000E-8	8.751438E-2
1.740000E-8	8.918450E-2
1.745000E-8	9.064907E-2
1.750000E-8	9.189952E-2
1.755000E-8	9.279025E-2
1.760000E-8	9.337265E-2
1.765000E-8	9.368098E-2
1.770000E-8	9.374094E-2
1.775000E-8	9.344117E-2
1.780000E-8	9.268748E-2
1.785000E-8	9.152267E-2
1.790000E-8	8.999815E-2
1.795000E-8	8.813104E-2
1.800000E-8	8.592990E-2
1.805000E-8	8.345470E-2
1.810000E-8	8.078250E-2
1.815000E-8	7.806748E-2
1.820000E-8	7.542098E-2
1.825000E-8	7.287726E-2
1.830000E-8	7.055621E-2
1.835000E-8	6.858633E-2
1.840000E-8	6.697616E-2
1.845000E-8	6.568288E-2
1.850000E-8	6.481785E-2
1.855000E-8	6.432966E-2
1.860000E-8	6.412410E-2
1.865000E-8	6.426114E-2
1.870000E-8	6.473220E-2
1.875000E-8	6.540025E-2
1.880000E-8	6.622246E-2
1.885000E-8	6.731018E-2
1.890000E-8	6.860346E-2
1.895000E-8	7.001664E-2
1.900000E-8	7.154972E-2
1.905000E-8	7.322841E-2
1.910000E-8	7.508696E-2
1.915000E-8	7.709967E-2
1.920000E-8	7.913807E-2
1.925000E-8	8.112509E-2
1.930000E-8	8.309498E-2
1.935000E-8	8.498778E-2
1.940000E-8	8.663221E-2
1.945000E-8	8.799400E-2
1.950000E-8	8.907316E-2
1.955000E-8	8.977547E-2
1.960000E-8	8.993820E-2
1.965000E-8	8.959561E-2
1.970000E-8	8.879052E-2
1.975000E-8	8.743730E-2
1.980000E-8	8.550167E-2
1.985000E-8	8.316350E-2
1.990000E-8	8.050843E-2
1.995000E-8	7.751077E-2
2.000000E-8	7.423048E-2
2.005000E-8	7.089024E-2
2.010000E-8	6.765277E-2
2.015000E-8	6.457803E-2
2.020000E-8	6.177737E-2
2.025000E-8	5.929359E-2
2.030000E-8	5.722949E-2
2.035000E-8	5.571354E-2
2.040000E-8	5.474572E-2
2.045000E-8	5.428323E-2
2.050000E-8	5.441170E-2
2.055000E-8	5.517396E-2
2.060000E-8	5.646723E-2
2.065000E-8	5.823157E-2
2.070000E-8	6.050979E-2
2.075000E-8	6.316485E-2
2.080000E-8	6.607686E-2
2.085000E-8	6.922012E-2
2.090000E-8	7.250041E-2
2.095000E-8	7.571218E-2
2.100000E-8	7.878692E-2
2.105000E-8	8.167323E-2
2.110000E-8	8.423409E-2
2.115000E-8	8.633245E-2
2.120000E-8	8.791692E-2
2.125000E-8	8.893612E-2
2.130000E-8	8.939005E-2
2.135000E-8	8.927015E-2
2.140000E-8	8.848219E-2
2.145000E-8	8.708614E-2
2.150000E-8	8.519334E-2
2.155000E-8	8.279521E-2
2.160000E-8	7.990890E-2
2.165000E-8	7.672282E-2
2.170000E-8	7.333119E-2
2.175000E-8	6.972544E-2
2.180000E-8	6.603404E-2
2.185000E-8	6.248824E-2
2.190000E-8	5.920795E-2
2.195000E-8	5.620173E-2
2.200000E-8	5.362374E-2
2.205000E-8	5.155108E-2
2.210000E-8	5.007795E-2
2.215000E-8	4.926430E-2
2.220000E-8	4.919578E-2
2.225000E-8	4.982100E-2
2.230000E-8	5.110571E-2
2.235000E-8	5.301565E-2
2.240000E-8	5.546516E-2
2.245000E-8	5.836004E-2
2.250000E-8	6.162320E-2
2.255000E-8	6.507479E-2
2.260000E-8	6.855207E-2
2.265000E-8	7.192657E-2
2.270000E-8	7.511265E-2
2.275000E-8	7.792188E-2
2.280000E-8	8.026005E-2
2.285000E-8	8.210147E-2
2.290000E-8	8.342900E-2
2.295000E-8	8.420839E-2
2.300000E-8	8.443108E-2
2.305000E-8	8.413988E-2
2.310000E-8	8.340331E-2
2.315000E-8	8.226420E-2
2.320000E-8	8.071398E-2
2.325000E-8	7.882118E-2
2.330000E-8	7.667143E-2
2.335000E-8	7.424761E-2
2.340000E-8	7.147264E-2
2.345000E-8	6.851781E-2
2.350000E-8	6.550302E-2
2.355000E-8	6.233407E-2
2.360000E-8	5.900239E-2
2.365000E-8	5.577349E-2
2.370000E-8	5.278440E-2
2.375000E-8	5.000943E-2
2.380000E-8	4.767126E-2
2.385000E-8	4.604396E-2
2.390000E-8	4.509327E-2
2.395000E-8	4.480207E-2
2.400000E-8	4.535021E-2
2.405000E-8	4.676339E-2
2.410000E-8	4.892171E-2
2.415000E-8	5.176520E-2
2.420000E-8	5.522535E-2
2.425000E-8	5.901952E-2
2.430000E-8	6.293360E-2
2.435000E-8	6.684769E-2
2.440000E-8	7.057334E-2
2.445000E-8	7.385364E-2
2.450000E-8	7.656009E-2
2.455000E-8	7.860706E-2
2.460000E-8	7.995172E-2
2.465000E-8	8.063690E-2
2.470000E-8	8.067116E-2
2.475000E-8	8.004593E-2
2.480000E-8	7.888113E-2
2.485000E-8	7.733948E-2
2.490000E-8	7.556658E-2
2.495000E-8	7.360526E-2
2.500000E-8	7.147264E-2
2.505000E-8	6.926294E-2
2.510000E-8	6.708750E-2
2.515000E-8	6.494632E-2
2.520000E-8	6.276231E-2
2.525000E-8	6.061256E-2
2.530000E-8	5.863411E-2
2.535000E-8	5.674987E-2
2.540000E-8	5.487419E-2
2.545000E-8	5.313555E-2
2.550000E-8	5.164529E-2
2.555000E-8	5.033489E-2
2.560000E-8	4.928143E-2
2.565000E-8	4.863907E-2
2.570000E-8	4.848491E-2
2.575000E-8	4.874185E-2
2.580000E-8	4.942703E-2
2.585000E-8	5.056613E-2
2.590000E-8	5.213348E-2
2.595000E-8	5.401772E-2
2.600000E-8	5.611608E-2
2.605000E-8	5.838573E-2
2.610000E-8	6.074103E-2
2.615000E-8	6.299356E-2
2.620000E-8	6.504909E-2
2.625000E-8	6.691620E-2
2.630000E-8	6.850924E-2
2.635000E-8	6.975969E-2
2.640000E-8	7.065899E-2
2.645000E-8	7.130135E-2
2.650000E-8	7.170389E-2
2.655000E-8	7.184949E-2
2.660000E-8	7.172102E-2
2.665000E-8	7.137843E-2
2.670000E-8	7.088167E-2
2.675000E-8	7.019650E-2
2.680000E-8	6.925438E-2
2.685000E-8	6.809814E-2
2.690000E-8	6.675347E-2
2.695000E-8	6.516900E-2
2.700000E-8	6.330189E-2
2.705000E-8	6.126348E-2
2.710000E-8	5.910517E-2
2.715000E-8	5.679269E-2
2.720000E-8	5.436031E-2
2.725000E-8	5.203070E-2
2.730000E-8	4.989809E-2
2.735000E-8	4.791963E-2
2.740000E-8	4.624951E-2
2.745000E-8	4.505901E-2
2.750000E-8	4.433101E-2
2.755000E-8	4.407407E-2
2.760000E-8	4.443379E-2
2.765000E-8	4.535878E-2
2.770000E-8	4.672057E-2
2.775000E-8	4.850203E-2
2.780000E-8	5.066891E-2
2.785000E-8	5.302421E-2
2.790000E-8	5.550798E-2
2.795000E-8	5.806884E-2
2.800000E-8	6.056117E-2
2.805000E-8	6.286509E-2
2.810000E-8	6.499770E-2
2.815000E-8	6.688195E-2
2.820000E-8	6.843216E-2
2.825000E-8	6.969974E-2
2.830000E-8	7.065899E-2
2.835000E-8	7.124139E-2
2.840000E-8	7.148977E-2
2.845000E-8	7.141269E-2
2.850000E-8	7.091593E-2
2.855000E-8	6.999951E-2
2.860000E-8	6.873193E-2
2.865000E-8	6.707893E-2
2.870000E-8	6.503196E-2
2.875000E-8	6.262527E-2
2.880000E-8	5.992738E-2
2.885000E-8	5.703251E-2
2.890000E-8	5.404342E-2
2.895000E-8	5.106289E-2
2.900000E-8	4.817658E-2
2.905000E-8	4.559859E-2
2.910000E-8	4.345741E-2
2.915000E-8	4.167595E-2
2.920000E-8	4.027989E-2
2.925000E-8	3.947481E-2
2.930000E-8	3.930352E-2
2.935000E-8	3.968893E-2
2.940000E-8	4.060535E-2
2.945000E-8	4.203566E-2
2.950000E-8	4.388565E-2
2.955000E-8	4.610391E-2
2.960000E-8	4.862194E-2
2.965000E-8	5.127701E-2
2.970000E-8	5.400059E-2
2.975000E-8	5.677556E-2
2.980000E-8	5.954197E-2
2.985000E-8	6.214565E-2
2.990000E-8	6.450095E-2
2.995000E-8	6.653936E-2
3.000000E-8	6.819235E-2
3.005000E-8	6.946849E-2
3.010000E-8	7.032497E-2
3.015000E-8	7.063330E-2
3.020000E-8	7.036779E-2
3.025000E-8	6.967405E-2
3.030000E-8	6.854350E-2
3.035000E-8	6.684769E-2
3.040000E-8	6.465512E-2
3.045000E-8	6.215421E-2
3.050000E-8	5.941350E-2
3.055000E-8	5.640728E-2
3.060000E-8	5.324690E-2
3.065000E-8	5.011220E-2
3.070000E-8	4.708029E-2
3.075000E-8	4.420254E-2
3.080000E-8	4.156460E-2
3.085000E-8	3.931208E-2
3.090000E-8	3.751349E-2
3.095000E-8	3.617739E-2
3.100000E-8	3.540656E-2
3.105000E-8	3.527809E-2
3.110000E-8	3.574915E-2
3.115000E-8	3.678548E-2
3.120000E-8	3.841278E-2
3.125000E-8	4.060535E-2
3.130000E-8	4.328611E-2
3.135000E-8	4.634372E-2
3.140000E-8	4.965827E-2
3.145000E-8	5.309273E-2
3.150000E-8	5.653575E-2
3.155000E-8	5.980748E-2
3.160000E-8	6.273662E-2
3.165000E-8	6.523752E-2
3.170000E-8	6.724166E-2
3.175000E-8	6.856920E-2
3.180000E-8	6.914303E-2
3.185000E-8	6.903169E-2
3.190000E-8	6.829513E-2
3.195000E-8	6.693333E-2
3.200000E-8	6.498914E-2
3.205000E-8	6.254819E-2
3.210000E-8	5.982461E-2
3.215000E-8	5.701538E-2
3.220000E-8	5.412050E-2
3.225000E-8	5.118280E-2
3.230000E-8	4.845921E-2
3.235000E-8	4.608678E-2
3.240000E-8	4.400555E-2
3.245000E-8	4.223265E-2
3.250000E-8	4.082804E-2
3.255000E-8	3.975745E-2
3.260000E-8	3.897806E-2
3.265000E-8	3.856695E-2
3.270000E-8	3.845561E-2
3.275000E-8	3.854125E-2
3.280000E-8	3.879820E-2
3.285000E-8	3.927782E-2
3.290000E-8	4.002295E-2
3.295000E-8	4.097364E-2
3.300000E-8	4.214701E-2
3.305000E-8	4.357732E-2
3.310000E-8	4.531596E-2
3.315000E-8	4.728584E-2
3.320000E-8	4.933281E-2
3.325000E-8	5.149969E-2
3.330000E-8	5.377791E-2
3.335000E-8	5.598761E-2
3.340000E-8	5.796606E-2
3.345000E-8	5.970470E-2
3.350000E-8	6.113501E-2
3.355000E-8	6.206000E-2
3.360000E-8	6.249680E-2
3.365000E-8	6.241116E-2
3.370000E-8	6.177737E-2
3.375000E-8	6.060400E-2
3.380000E-8	5.902809E-2
3.385000E-8	5.716954E-2
3.390000E-8	5.510544E-2
3.395000E-8	5.297282E-2
3.400000E-8	5.087447E-2
3.405000E-8	4.886175E-2
3.410000E-8	4.698608E-2
3.415000E-8	4.530739E-2
3.420000E-8	4.387708E-2
3.425000E-8	4.271228E-2
3.430000E-8	4.177016E-2
3.435000E-8	4.093081E-2
3.440000E-8	4.014286E-2
3.445000E-8	3.944055E-2
3.450000E-8	3.890097E-2
3.455000E-8	3.851556E-2
3.460000E-8	3.825005E-2
3.465000E-8	3.815584E-2
3.470000E-8	3.829288E-2
3.475000E-8	3.870398E-2
3.480000E-8	3.940629E-2
3.485000E-8	4.045975E-2
3.490000E-8	4.186437E-2
3.495000E-8	4.355162E-2
3.500000E-8	4.546156E-2
3.505000E-8	4.755135E-2
3.510000E-8	4.976961E-2
3.515000E-8	5.196219E-2
3.520000E-8	5.394920E-2
3.525000E-8	5.567071E-2
3.530000E-8	5.707533E-2
3.535000E-8	5.807740E-2
3.540000E-8	5.860842E-2
3.545000E-8	5.865124E-2
3.550000E-8	5.826583E-2
3.555000E-8	5.749500E-2
3.560000E-8	5.640728E-2
3.565000E-8	5.502836E-2
3.570000E-8	5.345245E-2
3.575000E-8	5.179089E-2
3.580000E-8	5.009507E-2
3.585000E-8	4.839069E-2
3.590000E-8	4.671201E-2
3.595000E-8	4.505901E-2
3.600000E-8	4.347454E-2
3.605000E-8	4.199284E-2
3.610000E-8	4.059679E-2
3.615000E-8	3.916648E-2
3.620000E-8	3.777899E-2
3.625000E-8	3.657137E-2
3.630000E-8	3.553503E-2
3.635000E-8	3.470426E-2
3.640000E-8	3.413042E-2
3.645000E-8	3.384778E-2
3.650000E-8	3.393343E-2
3.655000E-8	3.447301E-2
3.660000E-8	3.545795E-2
3.665000E-8	3.682831E-2
3.670000E-8	3.855838E-2
3.675000E-8	4.062248E-2
3.680000E-8	4.290070E-2
3.685000E-8	4.530739E-2
3.690000E-8	4.775690E-2
3.695000E-8	5.006938E-2
3.700000E-8	5.211635E-2
3.705000E-8	5.387212E-2
3.710000E-8	5.537095E-2
3.715000E-8	5.648436E-2
3.720000E-8	5.714385E-2
3.725000E-8	5.741792E-2
3.730000E-8	5.731514E-2
3.735000E-8	5.678413E-2
3.740000E-8	5.591053E-2
3.745000E-8	5.477142E-2
3.750000E-8	5.335824E-2
3.755000E-8	5.164529E-2
3.760000E-8	4.974392E-2
3.765000E-8	4.768839E-2
3.770000E-8	4.546156E-2
3.775000E-8	4.312338E-2
3.780000E-8	4.070813E-2
3.785000E-8	3.829288E-2
3.790000E-8	3.600609E-2
3.795000E-8	3.391630E-2
3.800000E-8	3.198067E-2
3.805000E-8	3.031055E-2
3.810000E-8	2.914575E-2
3.815000E-8	2.851196E-2
3.820000E-8	2.838348E-2
3.825000E-8	2.883742E-2
3.830000E-8	2.990801E-2
3.835000E-8	3.150105E-2
3.840000E-8	3.363366E-2
3.845000E-8	3.623734E-2
3.850000E-8	3.913222E-2
3.855000E-8	4.221552E-2
3.860000E-8	4.541017E-2
3.865000E-8	4.851916E-2
3.870000E-8	5.136265E-2
3.875000E-8	5.388069E-2
3.880000E-8	5.596191E-2
3.885000E-8	5.747787E-2
3.890000E-8	5.839430E-2
3.895000E-8	5.871976E-2
3.900000E-8	5.836860E-2
3.905000E-8	5.747787E-2
3.910000E-8	5.615034E-2
3.915000E-8	5.437744E-2
3.920000E-8	5.215061E-2
3.925000E-8	4.974392E-2
3.930000E-8	4.727728E-2
3.935000E-8	4.467360E-2
3.940000E-8	4.200140E-2
3.945000E-8	3.944912E-2
3.950000E-8	3.708525E-2
3.955000E-8	3.490124E-2
3.960000E-8	3.293992E-2
3.965000E-8	3.136401E-2
3.970000E-8	3.019921E-2
3.975000E-8	2.938556E-2
3.980000E-8	2.890593E-2
3.985000E-8	2.884598E-2
3.990000E-8	2.923139E-2
3.995000E-8	3.005361E-2
4.000000E-8	3.119272E-2
4.005000E-8	3.263159E-2
4.010000E-8	3.439592E-2
4.015000E-8	3.634012E-2
4.020000E-8	3.835283E-2
4.025000E-8	4.045119E-2
4.030000E-8	4.259237E-2
4.035000E-8	4.459652E-2
4.040000E-8	4.642937E-2
4.045000E-8	4.811662E-2
4.050000E-8	4.958119E-2
4.055000E-8	5.070317E-2
4.060000E-8	5.153395E-2
4.065000E-8	5.208209E-2
4.070000E-8	5.225339E-2
4.075000E-8	5.206496E-2
4.080000E-8	5.149969E-2
4.085000E-8	5.058326E-2
4.090000E-8	4.946128E-2
4.095000E-8	4.811662E-2
4.100000E-8	4.646363E-2
4.105000E-8	4.456226E-2
4.110000E-8	4.259237E-2
4.115000E-8	4.057966E-2
4.120000E-8	3.854982E-2
4.125000E-8	3.657137E-2
4.130000E-8	3.472995E-2
4.135000E-8	3.306839E-2
4.140000E-8	3.166378E-2
4.145000E-8	3.060175E-2
4.150000E-8	2.986518E-2
4.155000E-8	2.948833E-2
4.160000E-8	2.947121E-2
4.165000E-8	2.982236E-2
4.170000E-8	3.050754E-2
4.175000E-8	3.147535E-2
4.180000E-8	3.262303E-2
4.185000E-8	3.391630E-2
4.190000E-8	3.534661E-2
4.195000E-8	3.682831E-2
4.200000E-8	3.829288E-2
4.205000E-8	3.975745E-2
4.210000E-8	4.119632E-2
4.215000E-8	4.254955E-2
4.220000E-8	4.370579E-2
4.225000E-8	4.471642E-2
4.230000E-8	4.567567E-2
4.235000E-8	4.653215E-2
4.240000E-8	4.714881E-2
4.245000E-8	4.756848E-2
4.250000E-8	4.782542E-2
4.255000E-8	4.784255E-2
4.260000E-8	4.755135E-2
4.265000E-8	4.703747E-2
4.270000E-8	4.626664E-2
4.275000E-8	4.517892E-2
4.280000E-8	4.381713E-2
4.285000E-8	4.230117E-2
4.290000E-8	4.065674E-2
4.295000E-8	3.890097E-2
4.300000E-8	3.711951E-2
4.305000E-8	3.546652E-2
4.310000E-8	3.397625E-2
4.315000E-8	3.266585E-2
4.320000E-8	3.159526E-2
4.325000E-8	3.087582E-2
4.330000E-8	3.048184E-2
4.335000E-8	3.034481E-2
4.340000E-8	3.039620E-2
4.345000E-8	3.064457E-2
4.350000E-8	3.109850E-2
4.355000E-8	3.171516E-2
4.360000E-8	3.240034E-2
4.365000E-8	3.308552E-2
4.370000E-8	3.382209E-2
4.375000E-8	3.458435E-2
4.380000E-8	3.532948E-2
4.385000E-8	3.613457E-2
4.390000E-8	3.708525E-2
4.395000E-8	3.806163E-2
4.400000E-8	3.907227E-2
4.405000E-8	4.027989E-2
4.410000E-8	4.161599E-2
4.415000E-8	4.295209E-2
4.420000E-8	4.419398E-2
4.425000E-8	4.534165E-2
4.430000E-8	4.629233E-2
4.435000E-8	4.696895E-2
4.440000E-8	4.727728E-2
4.445000E-8	4.718307E-2
4.450000E-8	4.675483E-2
4.455000E-8	4.591549E-2
4.460000E-8	4.459652E-2
4.465000E-8	4.297778E-2
4.470000E-8	4.125627E-2
4.475000E-8	3.937203E-2
4.480000E-8	3.731650E-2
4.485000E-8	3.537230E-2
4.490000E-8	3.362510E-2
4.495000E-8	3.195498E-2
4.500000E-8	3.040476E-2
4.505000E-8	2.918000E-2
4.510000E-8	2.828071E-2
4.515000E-8	2.759553E-2
4.520000E-8	2.715873E-2
4.525000E-8	2.704739E-2
4.530000E-8	2.722725E-2
4.535000E-8	2.766405E-2
4.540000E-8	2.833210E-2
4.545000E-8	2.926565E-2
4.550000E-8	3.043902E-2
4.555000E-8	3.182651E-2
4.560000E-8	3.344524E-2
4.565000E-8	3.519244E-2
4.570000E-8	3.703386E-2
4.575000E-8	3.896949E-2
4.580000E-8	4.090512E-2
4.585000E-8	4.268658E-2
4.590000E-8	4.434814E-2
4.595000E-8	4.581271E-2
4.600000E-8	4.691756E-2
4.605000E-8	4.766269E-2
4.610000E-8	4.804810E-2
4.615000E-8	4.790250E-2
4.620000E-8	4.721733E-2
4.625000E-8	4.618099E-2
4.630000E-8	4.477638E-2
4.635000E-8	4.295209E-2
4.640000E-8	4.081091E-2
4.645000E-8	3.854982E-2
4.650000E-8	3.620308E-2
4.655000E-8	3.385635E-2
4.660000E-8	3.164665E-2
4.665000E-8	2.965106E-2
4.670000E-8	2.792955E-2
4.675000E-8	2.649924E-2
4.680000E-8	2.541152E-2
4.685000E-8	2.478630E-2
4.690000E-8	2.459787E-2
4.695000E-8	2.470922E-2
4.700000E-8	2.516315E-2
4.705000E-8	2.600249E-2
4.710000E-8	2.711590E-2
4.715000E-8	2.834923E-2
4.720000E-8	2.971102E-2
4.725000E-8	3.119272E-2
4.730000E-8	3.271724E-2
4.735000E-8	3.425889E-2
4.740000E-8	3.582623E-2
4.745000E-8	3.735076E-2
4.750000E-8	3.881533E-2
4.755000E-8	4.020281E-2
4.760000E-8	4.144470E-2
4.765000E-8	4.252385E-2
4.770000E-8	4.345741E-2
4.775000E-8	4.416828E-2
4.780000E-8	4.458795E-2
4.785000E-8	4.469929E-2
4.790000E-8	4.451087E-2
4.795000E-8	4.392847E-2
4.800000E-8	4.295209E-2
4.805000E-8	4.169307E-2
4.810000E-8	4.018568E-2
4.815000E-8	3.842135E-2
4.820000E-8	3.647715E-2
4.825000E-8	3.449870E-2
4.830000E-8	3.252881E-2
4.835000E-8	3.057606E-2
4.840000E-8	2.884598E-2
4.845000E-8	2.743280E-2
4.850000E-8	2.630226E-2
4.855000E-8	2.545435E-2
4.860000E-8	2.496616E-2
4.865000E-8	2.486338E-2
4.870000E-8	2.515458E-2
4.875000E-8	2.573698E-2
4.880000E-8	2.653350E-2
4.885000E-8	2.755271E-2
4.890000E-8	2.882029E-2
4.895000E-8	3.019921E-2
4.900000E-8	3.159526E-2
4.905000E-8	3.302557E-2
4.910000E-8	3.444731E-2
4.915000E-8	3.577485E-2
4.920000E-8	3.699960E-2
4.925000E-8	3.813871E-2
4.930000E-8	3.910653E-2
4.935000E-8	3.986879E-2
4.940000E-8	4.045119E-2
4.945000E-8	4.083660E-2
4.950000E-8	4.104216E-2
4.955000E-8	4.107641E-2
4.960000E-8	4.093081E-2
4.965000E-8	4.057110E-2
4.970000E-8	3.998869E-2
4.975000E-8	3.917504E-2
4.980000E-8	3.819866E-2
4.985000E-8	3.712807E-2
4.990000E-8	3.594614E-2
4.995000E-8	3.467856E-2
5.000000E-8	3.336816E-2
5.005000E-8	3.204919E-2
5.010000E-8	3.077304E-2
5.015000E-8	2.957398E-2
5.020000E-8	2.847770E-2
5.025000E-8	2.755271E-2
5.030000E-8	2.685896E-2
5.035000E-8	2.633651E-2
5.040000E-8	2.595110E-2
5.045000E-8	2.581407E-2
5.050000E-8	2.591684E-2
5.055000E-8	2.620804E-2
5.060000E-8	2.669623E-2
5.065000E-8	2.739854E-2
5.070000E-8	2.824645E-2
5.075000E-8	2.921426E-2
5.080000E-8	3.029342E-2
5.085000E-8	3.138114E-2
5.090000E-8	3.243460E-2
5.095000E-8	3.347093E-2
5.100000E-8	3.439592E-2
5.105000E-8	3.520101E-2
5.110000E-8	3.591188E-2
5.115000E-8	3.646002E-2
5.120000E-8	3.676836E-2
5.125000E-8	3.698247E-2
5.130000E-8	3.717946E-2
5.135000E-8	3.724798E-2
5.140000E-8	3.715377E-2
5.145000E-8	3.704243E-2
5.150000E-8	3.685400E-2
5.155000E-8	3.655424E-2
5.160000E-8	3.622878E-2
5.165000E-8	3.593758E-2
5.170000E-8	3.555216E-2
5.175000E-8	3.502115E-2
5.180000E-8	3.432741E-2
5.185000E-8	3.350519E-2
5.190000E-8	3.260590E-2
5.195000E-8	3.158669E-2
5.200000E-8	3.042189E-2
5.205000E-8	2.925709E-2
5.210000E-8	2.816080E-2
5.215000E-8	2.701313E-2
5.220000E-8	2.590828E-2
5.225000E-8	2.512032E-2
5.230000E-8	2.463213E-2
5.235000E-8	2.428954E-2
5.240000E-8	2.417820E-2
5.245000E-8	2.446084E-2
5.250000E-8	2.504324E-2
5.255000E-8	2.583120E-2
5.260000E-8	2.683327E-2
5.265000E-8	2.800664E-2
5.270000E-8	2.926565E-2
5.275000E-8	3.057606E-2
5.280000E-8	3.191215E-2
5.285000E-8	3.316260E-2
5.290000E-8	3.428458E-2
5.295000E-8	3.526096E-2
5.300000E-8	3.606605E-2
5.305000E-8	3.669127E-2
5.310000E-8	3.719659E-2
5.315000E-8	3.753062E-2
5.320000E-8	3.766765E-2
5.325000E-8	3.759057E-2
5.330000E-8	3.733363E-2
5.335000E-8	3.686257E-2
5.340000E-8	3.620308E-2
5.345000E-8	3.533805E-2
5.350000E-8	3.429315E-2
5.355000E-8	3.308552E-2
5.360000E-8	3.172373E-2
5.365000E-8	3.019921E-2
5.370000E-8	2.863186E-2
5.375000E-8	2.711590E-2
5.380000E-8	2.564277E-2
5.385000E-8	2.419533E-2
5.390000E-8	2.298770E-2
5.395000E-8	2.214836E-2
5.400000E-8	2.156596E-2
5.405000E-8	2.126619E-2
5.410000E-8	2.135184E-2
5.415000E-8	2.176295E-2
5.420000E-8	2.242243E-2
5.425000E-8	2.334742E-2
5.430000E-8	2.448653E-2
5.435000E-8	2.577124E-2
5.440000E-8	2.711590E-2
5.445000E-8	2.852052E-2
5.450000E-8	2.988231E-2
5.455000E-8	3.115846E-2
5.460000E-8	3.228044E-2
5.465000E-8	3.326538E-2
5.470000E-8	3.421607E-2
5.475000E-8	3.508110E-2
5.480000E-8	3.575772E-2
5.485000E-8	3.625447E-2
5.490000E-8	3.666558E-2
5.495000E-8	3.693965E-2
5.500000E-8	3.699960E-2
5.505000E-8	3.683687E-2
5.510000E-8	3.643433E-2
5.515000E-8	3.580911E-2
5.520000E-8	3.496976E-2
5.525000E-8	3.389917E-2
5.530000E-8	3.261446E-2
5.535000E-8	3.109850E-2
5.540000E-8	2.944551E-2
5.545000E-8	2.775826E-2
5.550000E-8	2.618235E-2
5.555000E-8	2.464070E-2
5.560000E-8	2.316756E-2
5.565000E-8	2.200276E-2
5.570000E-8	2.119768E-2
5.575000E-8	2.071805E-2
5.580000E-8	2.060671E-2
5.585000E-8	2.089791E-2
5.590000E-8	2.146318E-2
5.595000E-8	2.227683E-2
5.600000E-8	2.336455E-2
5.605000E-8	2.458931E-2
5.610000E-8	2.582263E-2
5.615000E-8	2.709878E-2
5.620000E-8	2.844344E-2
5.625000E-8	2.976241E-2
5.630000E-8	3.096147E-2
5.635000E-8	3.206632E-2
5.640000E-8	3.304270E-2
5.645000E-8	3.389061E-2
5.650000E-8	3.464430E-2
5.655000E-8	3.520101E-2
5.660000E-8	3.545795E-2
5.665000E-8	3.551790E-2
5.670000E-8	3.544082E-2
5.675000E-8	3.510680E-2
5.680000E-8	3.450727E-2
5.685000E-8	3.372788E-2
5.690000E-8	3.271724E-2
5.695000E-8	3.148392E-2
5.700000E-8	3.013069E-2
5.705000E-8	2.870038E-2
5.710000E-8	2.719299E-2
5.715000E-8	2.574555E-2
5.720000E-8	2.445227E-2
5.725000E-8	2.327891E-2
5.730000E-8	2.232822E-2
5.735000E-8	2.169443E-2
5.740000E-8	2.125763E-2
5.745000E-8	2.101782E-2
5.750000E-8	2.111203E-2
5.755000E-8	2.145462E-2
5.760000E-8	2.196850E-2
5.765000E-8	2.272220E-2
5.770000E-8	2.365575E-2
5.775000E-8	2.459787E-2
5.780000E-8	2.553999E-2
5.785000E-8	2.655063E-2
5.790000E-8	2.754414E-2
5.795000E-8	2.845200E-2
5.800000E-8	2.929135E-2
5.805000E-8	2.998509E-2
5.810000E-8	3.055893E-2
5.815000E-8	3.107281E-2
5.820000E-8	3.147535E-2
5.825000E-8	3.168947E-2
5.830000E-8	3.181794E-2
5.835000E-8	3.186076E-2
5.840000E-8	3.174086E-2
5.845000E-8	3.149248E-2
5.850000E-8	3.118415E-2
5.855000E-8	3.079874E-2
5.860000E-8	3.038763E-2
5.865000E-8	2.991657E-2
5.870000E-8	2.932560E-2
5.875000E-8	2.868325E-2
5.880000E-8	2.804090E-2
5.885000E-8	2.738998E-2
5.890000E-8	2.676475E-2
5.895000E-8	2.617378E-2
5.900000E-8	2.556569E-2
5.905000E-8	2.494903E-2
5.910000E-8	2.446940E-2
5.915000E-8	2.408399E-2
5.920000E-8	2.364719E-2
5.925000E-8	2.324465E-2
5.930000E-8	2.298770E-2
5.935000E-8	2.273933E-2
5.940000E-8	2.251664E-2
5.945000E-8	2.246526E-2
5.950000E-8	2.255947E-2
5.955000E-8	2.267081E-2
5.960000E-8	2.291062E-2
5.965000E-8	2.336455E-2
5.970000E-8	2.392983E-2
5.975000E-8	2.461500E-2
5.980000E-8	2.548861E-2
5.985000E-8	2.647355E-2
5.990000E-8	2.745849E-2
5.995000E-8	2.843487E-2
6.000000E-8	2.932560E-2
6.005000E-8	3.007930E-2
6.010000E-8	3.079017E-2
6.015000E-8	3.136401E-2
6.020000E-8	3.165521E-2
6.025000E-8	3.175799E-2
6.030000E-8	3.175799E-2
6.035000E-8	3.150961E-2
6.040000E-8	3.101286E-2
6.045000E-8	3.047328E-2
6.050000E-8	2.985662E-2
6.055000E-8	2.906866E-2
6.060000E-8	2.823788E-2
6.065000E-8	2.744993E-2
6.070000E-8	2.661059E-2
6.075000E-8	2.574555E-2
6.080000E-8	2.494046E-2
6.085000E-8	2.413538E-2
6.090000E-8	2.335599E-2
6.095000E-8	2.269650E-2
6.100000E-8	2.211410E-2
6.105000E-8	2.154883E-2
6.110000E-8	2.112059E-2
6.115000E-8	2.086365E-2
6.120000E-8	2.072662E-2
6.125000E-8	2.077800E-2
6.130000E-8	2.104351E-2
6.135000E-8	2.139467E-2
6.140000E-8	2.187429E-2
6.145000E-8	2.259373E-2
6.150000E-8	2.346733E-2
6.155000E-8	2.436663E-2
6.160000E-8	2.526592E-2
6.165000E-8	2.621661E-2
6.170000E-8	2.718442E-2
6.175000E-8	2.807515E-2
6.180000E-8	2.883742E-2
6.185000E-8	2.948833E-2
6.190000E-8	3.005361E-2
6.195000E-8	3.046471E-2
6.200000E-8	3.067027E-2
6.205000E-8	3.073022E-2
6.210000E-8	3.064457E-2
6.215000E-8	3.037050E-2
6.220000E-8	2.995083E-2
6.225000E-8	2.943695E-2
6.230000E-8	2.881172E-2
6.235000E-8	2.806659E-2
6.240000E-8	2.724438E-2
6.245000E-8	2.632795E-2
6.250000E-8	2.536013E-2
6.255000E-8	2.440089E-2
6.260000E-8	2.342451E-2
6.265000E-8	2.240530E-2
6.270000E-8	2.147175E-2
6.275000E-8	2.070092E-2
6.280000E-8	2.005857E-2
6.285000E-8	1.953612E-2
6.290000E-8	1.923635E-2
6.295000E-8	1.913358E-2
6.300000E-8	1.926205E-2
6.305000E-8	1.964746E-2
6.310000E-8	2.028981E-2
6.315000E-8	2.110346E-2
6.320000E-8	2.204558E-2
6.325000E-8	2.313331E-2
6.330000E-8	2.432380E-2
6.335000E-8	2.550574E-2
6.340000E-8	2.659346E-2
6.345000E-8	2.756127E-2
6.350000E-8	2.841774E-2
6.355000E-8	2.912862E-2
6.360000E-8	2.960824E-2
6.365000E-8	2.985662E-2
6.370000E-8	2.991657E-2
6.375000E-8	2.979666E-2
6.380000E-8	2.948833E-2
6.385000E-8	2.900015E-2
6.390000E-8	2.836636E-2
6.395000E-8	2.762979E-2
6.400000E-8	2.683327E-2
6.405000E-8	2.600249E-2
6.410000E-8	2.513745E-2
6.415000E-8	2.422103E-2
6.420000E-8	2.330460E-2
6.425000E-8	2.243956E-2
6.430000E-8	2.162591E-2
6.435000E-8	2.088935E-2
6.440000E-8	2.024699E-2
6.445000E-8	1.970741E-2
6.450000E-8	1.927061E-2
6.455000E-8	1.898798E-2
6.460000E-8	1.889376E-2
6.465000E-8	1.896228E-2
6.470000E-8	1.916784E-2
6.475000E-8	1.955325E-2
6.480000E-8	2.010996E-2
6.485000E-8	2.080370E-2
6.490000E-8	2.156596E-2
6.495000E-8	2.237961E-2
6.500000E-8	2.324465E-2
6.505000E-8	2.410112E-2
6.510000E-8	2.489764E-2
6.515000E-8	2.564277E-2
6.520000E-8	2.637934E-2
6.525000E-8	2.700456E-2
6.530000E-8	2.746706E-2
6.535000E-8	2.781821E-2
6.540000E-8	2.804090E-2
6.545000E-8	2.806659E-2
6.550000E-8	2.791242E-2
6.555000E-8	2.769831E-2
6.560000E-8	2.732146E-2
6.565000E-8	2.679901E-2
6.570000E-8	2.620804E-2
6.575000E-8	2.558282E-2
6.580000E-8	2.488051E-2
6.585000E-8	2.416107E-2
6.590000E-8	2.348446E-2
6.595000E-8	2.280785E-2
6.600000E-8	2.213980E-2
6.605000E-8	2.159165E-2
6.610000E-8	2.114629E-2
6.615000E-8	2.078657E-2
6.620000E-8	2.052963E-2
6.625000E-8	2.035833E-2
6.630000E-8	2.028981E-2
6.635000E-8	2.033264E-2
6.640000E-8	2.040972E-2
6.645000E-8	2.050393E-2
6.650000E-8	2.068379E-2
6.655000E-8	2.094930E-2
6.660000E-8	2.121481E-2
6.665000E-8	2.148031E-2
6.670000E-8	2.183147E-2
6.675000E-8	2.226827E-2
6.680000E-8	2.267937E-2
6.685000E-8	2.305622E-2
6.690000E-8	2.345876E-2
6.695000E-8	2.386987E-2
6.700000E-8	2.428954E-2
6.705000E-8	2.469209E-2
6.710000E-8	2.507750E-2
6.715000E-8	2.540296E-2
6.720000E-8	2.569416E-2
6.725000E-8	2.595110E-2
6.730000E-8	2.608814E-2
6.735000E-8	2.612240E-2
6.740000E-8	2.606244E-2
6.745000E-8	2.589971E-2
6.750000E-8	2.565134E-2
6.755000E-8	2.527449E-2
6.760000E-8	2.476917E-2
6.765000E-8	2.417820E-2
6.770000E-8	2.357011E-2
6.775000E-8	2.291062E-2
6.780000E-8	2.225970E-2
6.785000E-8	2.169443E-2
6.790000E-8	2.116342E-2
6.795000E-8	2.064097E-2
6.800000E-8	2.023843E-2
6.805000E-8	1.999861E-2
6.810000E-8	1.981875E-2
6.815000E-8	1.974167E-2
6.820000E-8	1.981019E-2
6.825000E-8	1.993010E-2
6.830000E-8	2.008426E-2
6.835000E-8	2.029838E-2
6.840000E-8	2.052106E-2
6.845000E-8	2.073518E-2
6.850000E-8	2.112059E-2
6.855000E-8	2.156596E-2
6.860000E-8	2.192568E-2
6.865000E-8	2.233679E-2
6.870000E-8	2.293632E-2
6.875000E-8	2.347589E-2
6.880000E-8	2.387844E-2
6.885000E-8	2.437519E-2
6.890000E-8	2.491477E-2
6.895000E-8	2.534301E-2
6.900000E-8	2.571129E-2
6.905000E-8	2.607957E-2
6.910000E-8	2.631938E-2
6.915000E-8	2.638790E-2
6.920000E-8	2.634508E-2
6.925000E-8	2.614809E-2
6.930000E-8	2.581407E-2
6.935000E-8	2.540296E-2
6.940000E-8	2.487195E-2
6.945000E-8	2.419533E-2
6.950000E-8	2.346733E-2
6.955000E-8	2.269650E-2
6.960000E-8	2.188285E-2
6.965000E-8	2.115485E-2
6.970000E-8	2.050393E-2
6.975000E-8	1.983588E-2
6.980000E-8	1.927061E-2
6.985000E-8	1.887663E-2
6.990000E-8	1.857687E-2
6.995000E-8	1.835419E-2
7.000000E-8	1.824284E-2
7.005000E-8	1.820859E-2
7.010000E-8	1.827710E-2
7.015000E-8	1.844840E-2
7.020000E-8	1.867108E-2
7.025000E-8	1.892802E-2
7.030000E-8	1.933057E-2
7.035000E-8	1.989584E-2
7.040000E-8	2.046111E-2
7.045000E-8	2.106064E-2
7.050000E-8	2.176295E-2
7.055000E-8	2.250808E-2
7.060000E-8	2.325321E-2
7.065000E-8	2.396408E-2
7.070000E-8	2.460644E-2
7.075000E-8	2.513745E-2
7.080000E-8	2.554856E-2
7.085000E-8	2.582263E-2
7.090000E-8	2.586545E-2
7.095000E-8	2.571129E-2
7.100000E-8	2.538583E-2
7.105000E-8	2.483769E-2
7.110000E-8	2.411825E-2
7.115000E-8	2.332173E-2
7.120000E-8	2.246526E-2
7.125000E-8	2.158309E-2
7.130000E-8	2.074375E-2
7.135000E-8	1.996436E-2
7.140000E-8	1.921922E-2
7.145000E-8	1.860256E-2
7.150000E-8	1.814007E-2
7.155000E-8	1.777178E-2
7.160000E-8	1.753197E-2
7.165000E-8	1.753197E-2
7.170000E-8	1.760905E-2
7.175000E-8	1.772040E-2
7.180000E-8	1.794308E-2
7.185000E-8	1.828567E-2
7.190000E-8	1.867108E-2
7.195000E-8	1.909932E-2
7.200000E-8	1.958751E-2
7.205000E-8	2.009283E-2
7.210000E-8	2.064953E-2
7.215000E-8	2.125763E-2
7.220000E-8	2.179721E-2
7.225000E-8	2.231109E-2
7.230000E-8	2.283354E-2
7.235000E-8	2.328747E-2
7.240000E-8	2.363006E-2
7.245000E-8	2.396408E-2
7.250000E-8	2.418677E-2
7.255000E-8	2.421246E-2
7.260000E-8	2.415251E-2
7.265000E-8	2.403260E-2
7.270000E-8	2.374140E-2
7.275000E-8	2.329604E-2
7.280000E-8	2.279072E-2
7.285000E-8	2.220831E-2
7.290000E-8	2.156596E-2
7.295000E-8	2.090648E-2
7.300000E-8	2.028125E-2
7.305000E-8	1.969885E-2
7.310000E-8	1.921922E-2
7.315000E-8	1.879955E-2
7.320000E-8	1.836275E-2
7.325000E-8	1.802873E-2
7.330000E-8	1.790026E-2
7.335000E-8	1.784887E-2
7.340000E-8	1.775465E-2
7.345000E-8	1.772040E-2
7.350000E-8	1.777178E-2
7.355000E-8	1.784030E-2
7.360000E-8	1.792595E-2
7.365000E-8	1.809724E-2
7.370000E-8	1.832849E-2
7.375000E-8	1.858543E-2
7.380000E-8	1.886807E-2
7.385000E-8	1.926205E-2
7.390000E-8	1.971598E-2
7.395000E-8	2.016991E-2
7.400000E-8	2.060671E-2
7.405000E-8	2.110346E-2
7.410000E-8	2.161735E-2
7.415000E-8	2.202846E-2
7.420000E-8	2.235391E-2
7.425000E-8	2.263655E-2
7.430000E-8	2.280785E-2
7.435000E-8	2.278215E-2
7.440000E-8	2.268794E-2
7.445000E-8	2.255090E-2
7.450000E-8	2.230253E-2
7.455000E-8	2.189142E-2
7.460000E-8	2.142892E-2
7.465000E-8	2.097499E-2
7.470000E-8	2.052963E-2
7.475000E-8	2.004144E-2
7.480000E-8	1.952755E-2
7.485000E-8	1.906506E-2
7.490000E-8	1.868821E-2
7.495000E-8	1.838844E-2
7.500000E-8	1.815720E-2
7.505000E-8	1.797734E-2
7.510000E-8	1.787456E-2
7.515000E-8	1.785743E-2
7.520000E-8	1.789169E-2
7.525000E-8	1.795164E-2
7.530000E-8	1.805442E-2
7.535000E-8	1.820859E-2
7.540000E-8	1.835419E-2
7.545000E-8	1.851692E-2
7.550000E-8	1.871390E-2
7.555000E-8	1.890233E-2
7.560000E-8	1.904793E-2
7.565000E-8	1.923635E-2
7.570000E-8	1.946760E-2
7.575000E-8	1.966459E-2
7.580000E-8	1.978450E-2
7.585000E-8	1.993010E-2
7.590000E-8	2.012709E-2
7.595000E-8	2.030694E-2
7.600000E-8	2.040972E-2
7.605000E-8	2.050393E-2
7.610000E-8	2.058958E-2
7.615000E-8	2.061527E-2
7.620000E-8	2.057245E-2
7.625000E-8	2.050393E-2
7.630000E-8	2.044398E-2
7.635000E-8	2.036690E-2
7.640000E-8	2.026412E-2
7.645000E-8	2.009283E-2
7.650000E-8	1.992153E-2
7.655000E-8	1.980163E-2
7.660000E-8	1.969028E-2
7.665000E-8	1.948473E-2
7.670000E-8	1.928774E-2
7.675000E-8	1.915071E-2
7.680000E-8	1.893659E-2
7.685000E-8	1.866252E-2
7.690000E-8	1.845696E-2
7.695000E-8	1.826854E-2
7.700000E-8	1.797734E-2
7.705000E-8	1.769470E-2
7.710000E-8	1.749771E-2
7.715000E-8	1.732642E-2
7.720000E-8	1.719795E-2
7.725000E-8	1.719795E-2
7.730000E-8	1.725790E-2
7.735000E-8	1.735211E-2
7.740000E-8	1.758336E-2
7.745000E-8	1.794308E-2
7.750000E-8	1.832849E-2
7.755000E-8	1.871390E-2
7.760000E-8	1.912501E-2
7.765000E-8	1.957038E-2
7.770000E-8	1.999861E-2
7.775000E-8	2.040116E-2
7.780000E-8	2.076944E-2
7.785000E-8	2.107777E-2
7.790000E-8	2.134328E-2
7.795000E-8	2.154027E-2
7.800000E-8	2.162591E-2
7.805000E-8	2.163448E-2
7.810000E-8	2.163448E-2
7.815000E-8	2.151457E-2
7.820000E-8	2.124906E-2
7.825000E-8	2.094073E-2
7.830000E-8	2.058102E-2
7.835000E-8	2.007570E-2
7.840000E-8	1.947617E-2
7.845000E-8	1.889376E-2
7.850000E-8	1.832849E-2
7.855000E-8	1.773753E-2
7.860000E-8	1.718082E-2
7.865000E-8	1.672689E-2
7.870000E-8	1.635004E-2
7.875000E-8	1.603314E-2
7.880000E-8	1.581903E-2
7.885000E-8	1.576764E-2
7.890000E-8	1.584472E-2
7.895000E-8	1.599889E-2
7.900000E-8	1.623013E-2
7.905000E-8	1.663268E-2
7.910000E-8	1.717225E-2
7.915000E-8	1.768614E-2
7.920000E-8	1.819146E-2
7.925000E-8	1.877386E-2
7.930000E-8	1.936482E-2
7.935000E-8	1.987014E-2
7.940000E-8	2.029838E-2
7.945000E-8	2.070092E-2
7.950000E-8	2.105208E-2
7.955000E-8	2.128332E-2
7.960000E-8	2.140323E-2
7.965000E-8	2.142892E-2
7.970000E-8	2.135184E-2
7.975000E-8	2.113772E-2
7.980000E-8	2.085509E-2
7.985000E-8	2.055532E-2
7.990000E-8	2.026412E-2
7.995000E-8	1.992153E-2
8.000000E-8	1.953612E-2
8.005000E-8	1.915071E-2
8.010000E-8	1.874816E-2
8.015000E-8	1.834562E-2
8.020000E-8	1.798590E-2
8.025000E-8	1.763475E-2
8.030000E-8	1.725790E-2
8.035000E-8	1.689818E-2
8.040000E-8	1.659842E-2
8.045000E-8	1.638430E-2
8.050000E-8	1.623013E-2
8.055000E-8	1.613592E-2
8.060000E-8	1.606740E-2
8.065000E-8	1.603314E-2
8.070000E-8	1.613592E-2
8.075000E-8	1.637573E-2
8.080000E-8	1.661555E-2
8.085000E-8	1.689818E-2
8.090000E-8	1.731785E-2
8.095000E-8	1.781461E-2
8.100000E-8	1.831993E-2
8.105000E-8	1.886807E-2
8.110000E-8	1.941621E-2
8.115000E-8	1.986158E-2
8.120000E-8	2.021273E-2
8.125000E-8	2.052963E-2
8.130000E-8	2.077800E-2
8.135000E-8	2.088935E-2
8.140000E-8	2.086365E-2
8.145000E-8	2.073518E-2
8.150000E-8	2.050393E-2
8.155000E-8	2.014421E-2
8.160000E-8	1.969028E-2
8.165000E-8	1.921066E-2
8.170000E-8	1.872247E-2
8.175000E-8	1.818289E-2
8.180000E-8	1.761762E-2
8.185000E-8	1.713799E-2
8.190000E-8	1.675258E-2
8.195000E-8	1.641856E-2
8.200000E-8	1.614449E-2
8.205000E-8	1.595606E-2
8.210000E-8	1.586185E-2
8.215000E-8	1.585328E-2
8.220000E-8	1.588754E-2
8.225000E-8	1.598176E-2
8.230000E-8	1.617874E-2
8.235000E-8	1.637573E-2
8.240000E-8	1.650420E-2
8.245000E-8	1.666693E-2
8.250000E-8	1.692388E-2
8.255000E-8	1.715512E-2
8.260000E-8	1.732642E-2
8.265000E-8	1.752341E-2
8.270000E-8	1.774609E-2
8.275000E-8	1.793451E-2
8.280000E-8	1.807155E-2
8.285000E-8	1.820002E-2
8.290000E-8	1.831136E-2
8.295000E-8	1.837988E-2
8.300000E-8	1.842270E-2
8.305000E-8	1.844840E-2
8.310000E-8	1.849122E-2
8.315000E-8	1.854261E-2
8.320000E-8	1.850835E-2
8.325000E-8	1.846553E-2
8.330000E-8	1.850835E-2
8.335000E-8	1.854261E-2
8.340000E-8	1.848266E-2
8.345000E-8	1.843983E-2
8.350000E-8	1.846553E-2
8.355000E-8	1.840557E-2
8.360000E-8	1.825141E-2
8.365000E-8	1.812294E-2
8.370000E-8	1.801160E-2
8.375000E-8	1.783174E-2
8.380000E-8	1.760905E-2
8.385000E-8	1.742063E-2
8.390000E-8	1.722364E-2
8.395000E-8	1.698383E-2
8.400000E-8	1.674402E-2
8.405000E-8	1.656416E-2
8.410000E-8	1.645282E-2
8.415000E-8	1.639286E-2
8.420000E-8	1.635004E-2
8.425000E-8	1.632435E-2
8.430000E-8	1.636717E-2
8.435000E-8	1.645282E-2
8.440000E-8	1.652133E-2
8.445000E-8	1.659842E-2
8.450000E-8	1.671832E-2
8.455000E-8	1.683823E-2
8.460000E-8	1.691531E-2
8.465000E-8	1.700952E-2
8.470000E-8	1.718082E-2
8.475000E-8	1.734355E-2
8.480000E-8	1.745489E-2
8.485000E-8	1.755767E-2
8.490000E-8	1.768614E-2
8.495000E-8	1.776322E-2
8.500000E-8	1.778035E-2
8.505000E-8	1.778035E-2
8.510000E-8	1.778891E-2
8.515000E-8	1.779748E-2
8.520000E-8	1.777178E-2
8.525000E-8	1.768614E-2
8.530000E-8	1.759193E-2
8.535000E-8	1.750628E-2
8.540000E-8	1.737781E-2
8.545000E-8	1.724077E-2
8.550000E-8	1.709517E-2
8.555000E-8	1.692388E-2
8.560000E-8	1.672689E-2
8.565000E-8	1.652133E-2
8.570000E-8	1.631578E-2
8.575000E-8	1.611879E-2
8.580000E-8	1.592180E-2
8.585000E-8	1.573338E-2
8.590000E-8	1.561347E-2
8.595000E-8	1.557065E-2
8.600000E-8	1.556208E-2
8.605000E-8	1.558778E-2
8.610000E-8	1.572481E-2
8.615000E-8	1.592180E-2
8.620000E-8	1.613592E-2
8.625000E-8	1.639286E-2
8.630000E-8	1.663268E-2
8.635000E-8	1.682966E-2
8.640000E-8	1.703522E-2
8.645000E-8	1.727503E-2
8.650000E-8	1.752341E-2
8.655000E-8	1.772040E-2
8.660000E-8	1.784030E-2
8.665000E-8	1.791738E-2
8.670000E-8	1.796877E-2
8.675000E-8	1.799447E-2
8.680000E-8	1.794308E-2
8.685000E-8	1.786600E-2
8.690000E-8	1.778035E-2
8.695000E-8	1.761762E-2
8.700000E-8	1.740350E-2
8.705000E-8	1.719795E-2
8.710000E-8	1.692388E-2
8.715000E-8	1.655559E-2
8.720000E-8	1.621300E-2
8.725000E-8	1.598176E-2
8.730000E-8	1.572481E-2
8.735000E-8	1.539935E-2
8.740000E-8	1.509102E-2
8.745000E-8	1.490260E-2
8.750000E-8	1.477413E-2
8.755000E-8	1.463709E-2
8.760000E-8	1.453432E-2
8.765000E-8	1.456001E-2
8.770000E-8	1.464566E-2
8.775000E-8	1.469705E-2
8.780000E-8	1.479982E-2
8.785000E-8	1.497968E-2
8.790000E-8	1.520237E-2
8.795000E-8	1.544218E-2
8.800000E-8	1.572481E-2
8.805000E-8	1.599032E-2
8.810000E-8	1.622157E-2
8.815000E-8	1.644425E-2
8.820000E-8	1.667550E-2
8.825000E-8	1.688962E-2
8.830000E-8	1.709517E-2
8.835000E-8	1.725790E-2
8.840000E-8	1.735211E-2
8.845000E-8	1.742920E-2
8.850000E-8	1.751484E-2
8.855000E-8	1.751484E-2
8.860000E-8	1.741207E-2
8.865000E-8	1.729216E-2
8.870000E-8	1.716369E-2
8.875000E-8	1.693244E-2
8.880000E-8	1.664980E-2
8.885000E-8	1.638430E-2
8.890000E-8	1.611023E-2
8.895000E-8	1.581046E-2
8.900000E-8	1.555352E-2
8.905000E-8	1.537366E-2
8.910000E-8	1.518524E-2
8.915000E-8	1.502251E-2
8.920000E-8	1.497112E-2
8.925000E-8	1.494542E-2
8.930000E-8	1.490260E-2
8.935000E-8	1.490260E-2
8.940000E-8	1.493686E-2
8.945000E-8	1.499681E-2
8.950000E-8	1.508246E-2
8.955000E-8	1.515098E-2
8.960000E-8	1.511672E-2
8.965000E-8	1.511672E-2
8.970000E-8	1.522806E-2
8.975000E-8	1.539079E-2
8.980000E-8	1.548500E-2
8.985000E-8	1.557065E-2
8.990000E-8	1.566486E-2
8.995000E-8	1.579333E-2
9.000000E-8	1.595606E-2
9.005000E-8	1.609310E-2
9.010000E-8	1.618731E-2
9.015000E-8	1.625583E-2
9.020000E-8	1.629865E-2
9.025000E-8	1.626439E-2
9.030000E-8	1.623013E-2
9.035000E-8	1.620444E-2
9.040000E-8	1.611023E-2
9.045000E-8	1.597319E-2
9.050000E-8	1.586185E-2
9.055000E-8	1.577620E-2
9.060000E-8	1.564773E-2
9.065000E-8	1.549357E-2
9.070000E-8	1.536510E-2
9.075000E-8	1.523662E-2
9.080000E-8	1.513385E-2
9.085000E-8	1.507389E-2
9.090000E-8	1.503107E-2
9.095000E-8	1.497112E-2
9.100000E-8	1.490260E-2
9.105000E-8	1.488547E-2
9.110000E-8	1.490260E-2
9.115000E-8	1.488547E-2
9.120000E-8	1.487691E-2
9.125000E-8	1.496255E-2
9.130000E-8	1.509102E-2
9.135000E-8	1.515098E-2
9.140000E-8	1.518524E-2
9.145000E-8	1.528801E-2
9.150000E-8	1.539935E-2
9.155000E-8	1.545931E-2
9.160000E-8	1.551926E-2
9.165000E-8	1.565630E-2
9.170000E-8	1.574194E-2
9.175000E-8	1.575051E-2
9.180000E-8	1.578477E-2
9.185000E-8	1.582759E-2
9.190000E-8	1.581903E-2
9.195000E-8	1.579333E-2
9.200000E-8	1.580190E-2
9.205000E-8	1.581046E-2
9.210000E-8	1.585328E-2
9.215000E-8	1.592180E-2
9.220000E-8	1.591324E-2
9.225000E-8	1.586185E-2
9.230000E-8	1.584472E-2
9.235000E-8	1.583616E-2
9.240000E-8	1.575051E-2
9.245000E-8	1.565630E-2
9.250000E-8	1.556208E-2
9.255000E-8	1.539935E-2
9.260000E-8	1.521949E-2
9.265000E-8	1.509959E-2
9.270000E-8	1.497968E-2
9.275000E-8	1.483408E-2
9.280000E-8	1.470561E-2
9.285000E-8	1.459427E-2
9.290000E-8	1.446580E-2
9.295000E-8	1.437159E-2
9.300000E-8	1.432020E-2
9.305000E-8	1.430307E-2
9.310000E-8	1.434589E-2
9.315000E-8	1.442298E-2
9.320000E-8	1.444010E-2
9.325000E-8	1.446580E-2
9.330000E-8	1.460283E-2
9.335000E-8	1.478269E-2
9.340000E-8	1.491973E-2
9.345000E-8	1.505677E-2
9.350000E-8	1.520237E-2
9.355000E-8	1.529658E-2
9.360000E-8	1.536510E-2
9.365000E-8	1.546787E-2
9.370000E-8	1.555352E-2
9.375000E-8	1.561347E-2
9.380000E-8	1.569912E-2
9.385000E-8	1.576764E-2
9.390000E-8	1.581903E-2
9.395000E-8	1.584472E-2
9.400000E-8	1.586185E-2
9.405000E-8	1.585328E-2
9.410000E-8	1.582759E-2
9.415000E-8	1.573338E-2
9.420000E-8	1.557065E-2
9.425000E-8	1.537366E-2
9.430000E-8	1.515954E-2
9.435000E-8	1.490260E-2
9.440000E-8	1.465422E-2
9.445000E-8	1.444867E-2
9.450000E-8	1.424312E-2
9.455000E-8	1.400330E-2
9.460000E-8	1.381488E-2
9.465000E-8	1.367784E-2
9.470000E-8	1.360076E-2
9.475000E-8	1.359220E-2
9.480000E-8	1.358363E-2
9.485000E-8	1.360076E-2
9.490000E-8	1.371210E-2
9.495000E-8	1.389196E-2
9.500000E-8	1.401187E-2
9.505000E-8	1.409752E-2
9.510000E-8	1.425168E-2
9.515000E-8	1.444010E-2
9.520000E-8	1.460283E-2
9.525000E-8	1.479126E-2
9.530000E-8	1.503107E-2
9.535000E-8	1.519380E-2
9.540000E-8	1.528801E-2
9.545000E-8	1.539079E-2
9.550000E-8	1.553639E-2
9.555000E-8	1.564773E-2
9.560000E-8	1.571625E-2
9.565000E-8	1.577620E-2
9.570000E-8	1.578477E-2
9.575000E-8	1.569056E-2
9.580000E-8	1.553639E-2
9.585000E-8	1.539079E-2
9.590000E-8	1.524519E-2
9.595000E-8	1.499681E-2
9.600000E-8	1.470561E-2
9.605000E-8	1.444867E-2
9.610000E-8	1.424312E-2
9.615000E-8	1.398617E-2
9.620000E-8	1.372067E-2
9.625000E-8	1.353224E-2
9.630000E-8	1.340377E-2
9.635000E-8	1.329243E-2
9.640000E-8	1.322391E-2
9.645000E-8	1.323248E-2
9.650000E-8	1.325817E-2
9.655000E-8	1.325817E-2
9.660000E-8	1.330100E-2
9.665000E-8	1.340377E-2
9.670000E-8	1.350655E-2
9.675000E-8	1.357507E-2
9.680000E-8	1.370354E-2
9.685000E-8	1.386627E-2
9.690000E-8	1.400330E-2
9.695000E-8	1.410608E-2
9.700000E-8	1.421742E-2
9.705000E-8	1.426881E-2
9.710000E-8	1.433733E-2
9.715000E-8	1.444010E-2
9.720000E-8	1.453432E-2
9.725000E-8	1.456858E-2
9.730000E-8	1.462853E-2
9.735000E-8	1.468848E-2
9.740000E-8	1.469705E-2
9.745000E-8	1.468848E-2
9.750000E-8	1.468848E-2
9.755000E-8	1.467992E-2
9.760000E-8	1.458570E-2
9.765000E-8	1.448293E-2
9.770000E-8	1.438015E-2
9.775000E-8	1.424312E-2
9.780000E-8	1.406326E-2
9.785000E-8	1.388340E-2
9.790000E-8	1.373780E-2
9.795000E-8	1.359220E-2
9.800000E-8	1.339521E-2
9.805000E-8	1.324104E-2
9.810000E-8	1.319822E-2
9.815000E-8	1.320678E-2
9.820000E-8	1.320678E-2
9.825000E-8	1.325817E-2
9.830000E-8	1.335238E-2
9.835000E-8	1.341234E-2
9.840000E-8	1.345516E-2
9.845000E-8	1.354937E-2
9.850000E-8	1.370354E-2
9.855000E-8	1.380631E-2
9.860000E-8	1.386627E-2
9.865000E-8	1.395191E-2
9.870000E-8	1.400330E-2
9.875000E-8	1.402900E-2
9.880000E-8	1.406326E-2
9.885000E-8	1.414034E-2
9.890000E-8	1.420886E-2
9.895000E-8	1.427737E-2
9.900000E-8	1.434589E-2
9.905000E-8	1.441441E-2
9.910000E-8	1.445723E-2
9.915000E-8	1.444867E-2
9.920000E-8	1.438872E-2
9.925000E-8	1.432020E-2
9.930000E-8	1.426881E-2
9.935000E-8	1.414034E-2
9.940000E-8	1.396048E-2
9.945000E-8	1.386627E-2
9.950000E-8	1.381488E-2
9.955000E-8	1.374636E-2
9.960000E-8	1.369497E-2
9.965000E-8	1.372067E-2
9.970000E-8	1.374636E-2
9.975000E-8	1.378918E-2
9.980000E-8	1.390909E-2
9.985000E-8	1.401187E-2
9.990000E-8	1.404613E-2
9.995000E-8	1.406326E-2
1.000000E-7	1.408039E-2
1.000500E-7	1.403756E-2
1.001000E-7	1.401187E-2
1.001500E-7	1.396904E-2
1.002000E-7	1.384914E-2
1.002500E-7	1.371210E-2
1.003000E-7	1.371210E-2
1.003500E-7	1.371210E-2
1.004000E-7	1.365215E-2
1.004500E-7	1.363502E-2
1.005000E-7	1.369497E-2
1.005500E-7	1.371210E-2
1.006000E-7	1.371210E-2
1.006500E-7	1.378062E-2
1.007000E-7	1.388340E-2
1.007500E-7	1.391766E-2
1.008000E-7	1.387483E-2
1.008500E-7	1.383201E-2
1.009000E-7	1.380631E-2
1.009500E-7	1.377206E-2
1.010000E-7	1.363502E-2
1.010500E-7	1.347229E-2
1.011000E-7	1.341234E-2
1.011500E-7	1.339521E-2
1.012000E-7	1.333525E-2
1.012500E-7	1.329243E-2
1.013000E-7	1.333525E-2
1.013500E-7	1.336951E-2
1.014000E-7	1.338664E-2
1.014500E-7	1.343803E-2
1.015000E-7	1.350655E-2
1.015500E-7	1.354081E-2
1.016000E-7	1.355794E-2
1.016500E-7	1.353224E-2
1.017000E-7	1.346373E-2
1.017500E-7	1.339521E-2
1.018000E-7	1.333525E-2
1.018500E-7	1.324961E-2
1.019000E-7	1.313827E-2
1.019500E-7	1.302692E-2
1.020000E-7	1.288989E-2
1.020500E-7	1.276142E-2
1.021000E-7	1.268433E-2
1.021500E-7	1.259012E-2
1.022000E-7	1.249591E-2
1.022500E-7	1.251304E-2
1.023000E-7	1.260725E-2
1.023500E-7	1.265008E-2
1.024000E-7	1.273572E-2
1.024500E-7	1.294984E-2
1.025000E-7	1.318965E-2
1.025500E-7	1.331812E-2
1.026000E-7	1.342947E-2
1.026500E-7	1.361789E-2
1.027000E-7	1.384057E-2
1.027500E-7	1.402043E-2
1.028000E-7	1.406326E-2
1.028500E-7	1.403756E-2
1.029000E-7	1.399474E-2
1.029500E-7	1.390909E-2
1.030000E-7	1.371210E-2
1.030500E-7	1.349798E-2
1.031000E-7	1.330100E-2
1.031500E-7	1.304405E-2
1.032000E-7	1.273572E-2
1.032500E-7	1.246165E-2
1.033000E-7	1.223897E-2
1.033500E-7	1.205054E-2
1.034000E-7	1.189638E-2
1.034500E-7	1.176791E-2
1.035000E-7	1.171652E-2
1.035500E-7	1.175934E-2
1.036000E-7	1.180217E-2
1.036500E-7	1.184499E-2
1.037000E-7	1.194777E-2
1.037500E-7	1.205054E-2
1.038000E-7	1.209337E-2
1.038500E-7	1.221327E-2
1.039000E-7	1.241026E-2
1.039500E-7	1.254730E-2
1.040000E-7	1.261582E-2
1.040500E-7	1.273572E-2
1.041000E-7	1.285563E-2
1.041500E-7	1.290702E-2
1.042000E-7	1.293271E-2
1.042500E-7	1.294984E-2
1.043000E-7	1.294128E-2
1.043500E-7	1.301836E-2
1.044000E-7	1.312114E-2
1.044500E-7	1.313827E-2
1.045000E-7	1.311257E-2
1.045500E-7	1.314683E-2
1.046000E-7	1.316396E-2
1.046500E-7	1.316396E-2
1.047000E-7	1.319822E-2
1.047500E-7	1.319822E-2
1.048000E-7	1.310401E-2
1.048500E-7	1.301836E-2
1.049000E-7	1.298410E-2
1.049500E-7	1.290702E-2
1.050000E-7	1.278711E-2
1.050500E-7	1.272716E-2
1.051000E-7	1.269290E-2
1.051500E-7	1.262438E-2
1.052000E-7	1.255586E-2
1.052500E-7	1.250448E-2
1.053000E-7	1.247022E-2
1.053500E-7	1.247022E-2
1.054000E-7	1.250448E-2
1.054500E-7	1.247878E-2
1.055000E-7	1.242739E-2
1.055500E-7	1.241026E-2
1.056000E-7	1.238457E-2
1.056500E-7	1.234175E-2
1.057000E-7	1.234175E-2
1.057500E-7	1.235888E-2
1.058000E-7	1.235031E-2
1.058500E-7	1.239313E-2
1.059000E-7	1.249591E-2
1.059500E-7	1.256443E-2
1.060000E-7	1.259869E-2
1.060500E-7	1.265008E-2
1.061000E-7	1.269290E-2
1.061500E-7	1.268433E-2
1.062000E-7	1.265864E-2
1.062500E-7	1.259012E-2
1.063000E-7	1.248735E-2
1.063500E-7	1.238457E-2
1.064000E-7	1.223040E-2
1.064500E-7	1.204198E-2
1.065000E-7	1.195633E-2
1.065500E-7	1.195633E-2
1.066000E-7	1.189638E-2
1.066500E-7	1.187069E-2
1.067000E-7	1.197346E-2
1.067500E-7	1.205054E-2
1.068000E-7	1.200772E-2
1.068500E-7	1.202485E-2
1.069000E-7	1.215332E-2
1.069500E-7	1.219615E-2
1.070000E-7	1.217902E-2
1.070500E-7	1.216189E-2
1.071000E-7	1.211906E-2
1.071500E-7	1.203342E-2
1.072000E-7	1.196490E-2
1.072500E-7	1.192207E-2
1.073000E-7	1.187069E-2
1.073500E-7	1.181073E-2
1.074000E-7	1.177647E-2
1.074500E-7	1.175934E-2
1.075000E-7	1.181073E-2
1.075500E-7	1.188781E-2
1.076000E-7	1.196490E-2
1.076500E-7	1.205054E-2
1.077000E-7	1.217902E-2
1.077500E-7	1.228179E-2
1.078000E-7	1.234175E-2
1.078500E-7	1.241026E-2
1.079000E-7	1.245309E-2
1.079500E-7	1.238457E-2
1.080000E-7	1.229892E-2
1.080500E-7	1.230749E-2
1.081000E-7	1.235031E-2
1.081500E-7	1.229036E-2
1.082000E-7	1.219615E-2
1.082500E-7	1.220471E-2
1.083000E-7	1.227323E-2
1.083500E-7	1.235031E-2
1.084000E-7	1.244452E-2
1.084500E-7	1.253017E-2
1.085000E-7	1.256443E-2
1.085500E-7	1.253873E-2
1.086000E-7	1.245309E-2
1.086500E-7	1.240170E-2
1.087000E-7	1.238457E-2
1.087500E-7	1.229036E-2
1.088000E-7	1.208480E-2
1.088500E-7	1.191351E-2
1.089000E-7	1.181930E-2
1.089500E-7	1.168226E-2
1.090000E-7	1.156236E-2
1.090500E-7	1.154523E-2
1.091000E-7	1.153666E-2
1.091500E-7	1.148527E-2
1.092000E-7	1.145958E-2
1.092500E-7	1.152810E-2
1.093000E-7	1.161374E-2
1.093500E-7	1.167370E-2
1.094000E-7	1.170796E-2
1.094500E-7	1.176791E-2
1.095000E-7	1.190494E-2
1.095500E-7	1.207624E-2
1.096000E-7	1.218758E-2
1.096500E-7	1.228179E-2
1.097000E-7	1.238457E-2
1.097500E-7	1.243596E-2
1.098000E-7	1.247878E-2
1.098500E-7	1.256443E-2
1.099000E-7	1.265008E-2
1.099500E-7	1.266721E-2
1.100000E-7	1.262438E-2
1.100500E-7	1.259012E-2
1.101000E-7	1.253017E-2
1.101500E-7	1.239313E-2
1.102000E-7	1.219615E-2
1.102500E-7	1.203342E-2
1.103000E-7	1.190494E-2
1.103500E-7	1.178504E-2
1.104000E-7	1.169083E-2
1.104500E-7	1.161374E-2
1.105000E-7	1.157092E-2
1.105500E-7	1.151097E-2
1.106000E-7	1.148527E-2
1.106500E-7	1.154523E-2
1.107000E-7	1.160518E-2
1.107500E-7	1.163944E-2
1.108000E-7	1.169083E-2
1.108500E-7	1.172509E-2
1.109000E-7	1.171652E-2
1.109500E-7	1.166513E-2
1.110000E-7	1.160518E-2
1.110500E-7	1.149384E-2
1.111000E-7	1.139106E-2
1.111500E-7	1.128828E-2
1.112000E-7	1.117694E-2
1.112500E-7	1.110842E-2
1.113000E-7	1.113412E-2
1.113500E-7	1.121977E-2
1.114000E-7	1.126259E-2
1.114500E-7	1.132254E-2
1.115000E-7	1.141675E-2
1.115500E-7	1.151097E-2
1.116000E-7	1.160518E-2
1.116500E-7	1.171652E-2
1.117000E-7	1.181930E-2
1.117500E-7	1.184499E-2
1.118000E-7	1.181073E-2
1.118500E-7	1.180217E-2
1.119000E-7	1.178504E-2
1.119500E-7	1.169939E-2
1.120000E-7	1.157092E-2
1.120500E-7	1.144245E-2
1.121000E-7	1.135680E-2
1.121500E-7	1.128828E-2
1.122000E-7	1.118551E-2
1.122500E-7	1.112555E-2
1.123000E-7	1.113412E-2
1.123500E-7	1.117694E-2
1.124000E-7	1.118551E-2
1.124500E-7	1.126259E-2
1.125000E-7	1.137393E-2
1.125500E-7	1.144245E-2
1.126000E-7	1.151097E-2
1.126500E-7	1.167370E-2
1.127000E-7	1.182786E-2
1.127500E-7	1.189638E-2
1.128000E-7	1.193064E-2
1.128500E-7	1.199059E-2
1.129000E-7	1.204198E-2
1.129500E-7	1.206767E-2
1.130000E-7	1.201629E-2
1.130500E-7	1.195633E-2
1.131000E-7	1.192207E-2
1.131500E-7	1.187069E-2
1.132000E-7	1.170796E-2
1.132500E-7	1.153666E-2
1.133000E-7	1.145101E-2
1.133500E-7	1.133967E-2
1.134000E-7	1.120264E-2
1.134500E-7	1.111699E-2
1.135000E-7	1.109130E-2
1.135500E-7	1.104847E-2
1.136000E-7	1.099708E-2
1.136500E-7	1.099708E-2
1.137000E-7	1.102278E-2
1.137500E-7	1.107417E-2
1.138000E-7	1.108273E-2
1.138500E-7	1.106560E-2
1.139000E-7	1.107417E-2
1.139500E-7	1.110842E-2
1.140000E-7	1.109130E-2
1.140500E-7	1.106560E-2
1.141000E-7	1.112555E-2
1.141500E-7	1.122833E-2
1.142000E-7	1.129685E-2
1.142500E-7	1.136537E-2
1.143000E-7	1.150240E-2
1.143500E-7	1.157948E-2
1.144000E-7	1.157948E-2
1.144500E-7	1.164800E-2
1.145000E-7	1.180217E-2
1.145500E-7	1.188781E-2
1.146000E-7	1.184499E-2
1.146500E-7	1.182786E-2
1.147000E-7	1.185356E-2
1.147500E-7	1.184499E-2
1.148000E-7	1.175934E-2
1.148500E-7	1.163087E-2
1.149000E-7	1.151097E-2
1.149500E-7	1.140819E-2
1.150000E-7	1.131398E-2
1.150500E-7	1.118551E-2
1.151000E-7	1.109130E-2
1.151500E-7	1.106560E-2
1.152000E-7	1.110842E-2
1.152500E-7	1.121120E-2
1.153000E-7	1.133111E-2
1.153500E-7	1.143388E-2
1.154000E-7	1.152810E-2
1.154500E-7	1.165657E-2
1.155000E-7	1.176791E-2
1.155500E-7	1.181930E-2
1.156000E-7	1.182786E-2
1.156500E-7	1.174221E-2
1.157000E-7	1.157092E-2
1.157500E-7	1.138250E-2
1.158000E-7	1.123690E-2
1.158500E-7	1.107417E-2
1.159000E-7	1.091144E-2
1.159500E-7	1.076584E-2
1.160000E-7	1.062880E-2
1.160500E-7	1.054315E-2
1.161000E-7	1.056885E-2
1.161500E-7	1.061167E-2
1.162000E-7	1.062023E-2
1.162500E-7	1.065449E-2
1.163000E-7	1.074871E-2
1.163500E-7	1.083435E-2
1.164000E-7	1.081722E-2
1.164500E-7	1.081722E-2
1.165000E-7	1.090287E-2
1.165500E-7	1.092000E-2
1.166000E-7	1.085148E-2
1.166500E-7	1.084292E-2
1.167000E-7	1.093713E-2
1.167500E-7	1.097995E-2
1.168000E-7	1.101421E-2
1.168500E-7	1.110842E-2
1.169000E-7	1.121120E-2
1.169500E-7	1.125402E-2
1.170000E-7	1.130541E-2
1.170500E-7	1.139963E-2
1.171000E-7	1.150240E-2
1.171500E-7	1.161374E-2
1.172000E-7	1.167370E-2
1.172500E-7	1.166513E-2
1.173000E-7	1.167370E-2
1.173500E-7	1.172509E-2
1.174000E-7	1.170796E-2
1.174500E-7	1.161374E-2
1.175000E-7	1.156236E-2
1.175500E-7	1.148527E-2
1.176000E-7	1.137393E-2
1.176500E-7	1.131398E-2
1.177000E-7	1.128828E-2
1.177500E-7	1.118551E-2
1.178000E-7	1.106560E-2
1.178500E-7	1.103134E-2
1.179000E-7	1.102278E-2
1.179500E-7	1.095426E-2
1.180000E-7	1.087718E-2
1.180500E-7	1.086861E-2
1.181000E-7	1.081722E-2
1.181500E-7	1.072301E-2
1.182000E-7	1.065449E-2
1.182500E-7	1.060311E-2
1.183000E-7	1.053459E-2
1.183500E-7	1.053459E-2
1.184000E-7	1.056885E-2
1.184500E-7	1.056885E-2
1.185000E-7	1.058598E-2
1.185500E-7	1.069732E-2
1.186000E-7	1.081722E-2
1.186500E-7	1.086005E-2
1.187000E-7	1.089431E-2
1.187500E-7	1.092857E-2
1.188000E-7	1.087718E-2
1.188500E-7	1.080866E-2
1.189000E-7	1.078296E-2
1.189500E-7	1.070588E-2
1.190000E-7	1.062023E-2
1.190500E-7	1.055172E-2
1.191000E-7	1.048320E-2
1.191500E-7	1.040612E-2
1.192000E-7	1.036329E-2
1.192500E-7	1.034616E-2
1.193000E-7	1.033760E-2
1.193500E-7	1.032903E-2
1.194000E-7	1.029478E-2
1.194500E-7	1.026908E-2
1.195000E-7	1.026908E-2
1.195500E-7	1.021769E-2
1.196000E-7	1.009779E-2
1.196500E-7	1.001214E-2
1.197000E-7	1.002070E-2
1.197500E-7	1.002927E-2
1.198000E-7	1.006353E-2
1.198500E-7	1.020056E-2
1.199000E-7	1.032047E-2
1.199500E-7	1.035473E-2
1.200000E-7	1.043181E-2
1.200500E-7	1.059454E-2
1.201000E-7	1.069732E-2
1.201500E-7	1.073158E-2
1.202000E-7	1.078296E-2
1.202500E-7	1.085148E-2
1.203000E-7	1.086005E-2
1.203500E-7	1.087718E-2
1.204000E-7	1.089431E-2
1.204500E-7	1.091144E-2
1.205000E-7	1.092857E-2
1.205500E-7	1.092857E-2
1.206000E-7	1.088574E-2
1.206500E-7	1.080866E-2
1.207000E-7	1.076584E-2
1.207500E-7	1.068019E-2
1.208000E-7	1.050889E-2
1.208500E-7	1.034616E-2
1.209000E-7	1.020913E-2
1.209500E-7	1.005496E-2
1.210000E-7	9.866539E-3
1.210500E-7	9.746633E-3
1.211000E-7	9.695244E-3
1.211500E-7	9.669550E-3
1.212000E-7	9.686679E-3
1.212500E-7	9.780891E-3
1.213000E-7	9.917927E-3
1.213500E-7	1.006353E-2
1.214000E-7	1.019200E-2
1.214500E-7	1.028621E-2
1.215000E-7	1.040612E-2
1.215500E-7	1.052602E-2
1.216000E-7	1.055172E-2
1.216500E-7	1.055172E-2
1.217000E-7	1.056885E-2
1.217500E-7	1.054315E-2
1.218000E-7	1.045751E-2
1.218500E-7	1.042325E-2
1.219000E-7	1.039755E-2
1.219500E-7	1.032047E-2
1.220000E-7	1.024339E-2
1.220500E-7	1.023482E-2
1.221000E-7	1.027765E-2
1.221500E-7	1.029478E-2
1.222000E-7	1.030334E-2
1.222500E-7	1.029478E-2
1.223000E-7	1.026908E-2
1.223500E-7	1.020913E-2
1.224000E-7	1.008066E-2
1.224500E-7	9.977880E-3
1.225000E-7	9.892233E-3
1.225500E-7	9.746633E-3
1.226000E-7	9.558208E-3
1.226500E-7	9.472561E-3
1.227000E-7	9.481126E-3
1.227500E-7	9.472561E-3
1.228000E-7	9.481126E-3
1.228500E-7	9.558208E-3
1.229000E-7	9.686679E-3
1.229500E-7	9.798021E-3
1.230000E-7	9.935057E-3
1.230500E-7	1.009779E-2
1.231000E-7	1.026908E-2
1.231500E-7	1.036329E-2
1.232000E-7	1.037186E-2
1.232500E-7	1.041468E-2
1.233000E-7	1.052602E-2
1.233500E-7	1.058598E-2
1.234000E-7	1.056885E-2
1.234500E-7	1.057741E-2
1.235000E-7	1.058598E-2
1.235500E-7	1.056885E-2
1.236000E-7	1.053459E-2
1.236500E-7	1.047463E-2
1.237000E-7	1.036329E-2
1.237500E-7	1.024339E-2
1.238000E-7	1.016630E-2
1.238500E-7	1.010635E-2
1.239000E-7	1.002927E-2
1.239500E-7	9.960751E-3
1.240000E-7	9.909362E-3
1.240500E-7	9.883668E-3
1.241000E-7	9.952186E-3
1.241500E-7	1.009779E-2
1.242000E-7	1.020056E-2
1.242500E-7	1.028621E-2
1.243000E-7	1.040612E-2
1.243500E-7	1.050889E-2
1.244000E-7	1.053459E-2
1.244500E-7	1.054315E-2
1.245000E-7	1.055172E-2
1.245500E-7	1.050033E-2
1.246000E-7	1.038899E-2
1.246500E-7	1.026908E-2
1.247000E-7	1.009779E-2
1.247500E-7	9.935057E-3
1.248000E-7	9.857974E-3
1.248500E-7	9.823715E-3
1.249000E-7	9.789456E-3
1.249500E-7	9.772327E-3
1.250000E-7	9.832280E-3
1.250500E-7	9.952186E-3
1.251000E-7	1.012348E-2
1.251500E-7	1.028621E-2
1.252000E-7	1.035473E-2
1.252500E-7	1.038899E-2
1.253000E-7	1.044894E-2
1.253500E-7	1.045751E-2
1.254000E-7	1.036329E-2
1.254500E-7	1.023482E-2
1.255000E-7	1.014917E-2
1.255500E-7	1.005496E-2
1.256000E-7	9.909362E-3
1.256500E-7	9.823715E-3
1.257000E-7	9.823715E-3
1.257500E-7	9.875103E-3
1.258000E-7	9.952186E-3
1.258500E-7	1.007209E-2
1.259000E-7	1.024339E-2
1.259500E-7	1.037186E-2
1.260000E-7	1.045751E-2
1.260500E-7	1.057741E-2
1.261000E-7	1.067162E-2
1.261500E-7	1.068875E-2
1.262000E-7	1.061167E-2
1.262500E-7	1.050033E-2
1.263000E-7	1.038899E-2
1.263500E-7	1.025195E-2
1.264000E-7	1.011492E-2
1.264500E-7	1.000357E-2
1.265000E-7	9.926492E-3
1.265500E-7	9.866539E-3
1.266000E-7	9.832280E-3
1.266500E-7	9.849409E-3
1.267000E-7	9.926492E-3
1.267500E-7	9.977880E-3
1.268000E-7	9.977880E-3
1.268500E-7	1.002927E-2
1.269000E-7	1.011492E-2
1.269500E-7	1.010635E-2
1.270000E-7	1.003783E-2
1.270500E-7	1.000357E-2
1.271000E-7	9.977880E-3
1.271500E-7	9.892233E-3
1.272000E-7	9.789456E-3
1.272500E-7	9.738068E-3
1.273000E-7	9.712374E-3
1.273500E-7	9.678115E-3
1.274000E-7	9.660985E-3
1.274500E-7	9.660985E-3
1.275000E-7	9.686679E-3
1.275500E-7	9.720938E-3
1.276000E-7	9.746633E-3
1.276500E-7	9.815150E-3
1.277000E-7	9.900798E-3
1.277500E-7	9.935057E-3
1.278000E-7	9.926492E-3
1.278500E-7	1.002070E-2
1.279000E-7	1.015774E-2
1.279500E-7	1.020056E-2
1.280000E-7	1.016630E-2
1.280500E-7	1.018343E-2
1.281000E-7	1.025195E-2
1.281500E-7	1.031190E-2
1.282000E-7	1.034616E-2
1.282500E-7	1.032047E-2
1.283000E-7	1.026908E-2
1.283500E-7	1.020056E-2
1.284000E-7	1.009779E-2
1.284500E-7	9.986445E-3
1.285000E-7	9.917927E-3
1.285500E-7	9.849409E-3
1.286000E-7	9.755197E-3
1.286500E-7	9.703809E-3
1.287000E-7	9.738068E-3
1.287500E-7	9.798021E-3
1.288000E-7	9.892233E-3
1.288500E-7	1.003783E-2
1.289000E-7	1.016630E-2
1.289500E-7	1.023482E-2
1.290000E-7	1.030334E-2
1.290500E-7	1.037186E-2
1.291000E-7	1.036329E-2
1.291500E-7	1.024339E-2
1.292000E-7	1.007209E-2
1.292500E-7	9.892233E-3
1.293000E-7	9.695244E-3
1.293500E-7	9.498255E-3
1.294000E-7	9.335526E-3
1.294500E-7	9.181360E-3
1.295000E-7	9.104278E-3
1.295500E-7	9.104278E-3
1.296000E-7	9.172796E-3
1.296500E-7	9.284137E-3
1.297000E-7	9.421173E-3
1.297500E-7	9.523950E-3
1.298000E-7	9.601032E-3
1.298500E-7	9.720938E-3
1.299000E-7	9.840845E-3
1.299500E-7	9.857974E-3
1.300000E-7	9.866539E-3
1.300500E-7	9.875103E-3
1.301000E-7	9.840845E-3
1.301500E-7	9.746633E-3
1.302000E-7	9.678115E-3
1.302500E-7	9.678115E-3
1.303000E-7	9.643856E-3
1.303500E-7	9.575338E-3
1.304000E-7	9.523950E-3
1.304500E-7	9.541079E-3
1.305000E-7	9.532514E-3
1.305500E-7	9.541079E-3
1.306000E-7	9.575338E-3
1.306500E-7	9.601032E-3
1.307000E-7	9.592467E-3
1.307500E-7	9.601032E-3
1.308000E-7	9.609597E-3
1.308500E-7	9.583903E-3
1.309000E-7	9.566773E-3
1.309500E-7	9.566773E-3
1.310000E-7	9.541079E-3
1.310500E-7	9.489691E-3
1.311000E-7	9.455432E-3
1.311500E-7	9.463996E-3
1.312000E-7	9.472561E-3
1.312500E-7	9.438302E-3
1.313000E-7	9.438302E-3
1.313500E-7	9.472561E-3
1.314000E-7	9.532514E-3
1.314500E-7	9.583903E-3
1.315000E-7	9.592467E-3
1.315500E-7	9.609597E-3
1.316000E-7	9.601032E-3
1.316500E-7	9.592467E-3
1.317000E-7	9.575338E-3
1.317500E-7	9.549644E-3
1.318000E-7	9.489691E-3
1.318500E-7	9.412608E-3
1.319000E-7	9.352655E-3
1.319500E-7	9.275572E-3
1.320000E-7	9.189925E-3
1.320500E-7	9.189925E-3
1.321000E-7	9.224184E-3
1.321500E-7	9.224184E-3
1.322000E-7	9.249878E-3
1.322500E-7	9.318396E-3
1.323000E-7	9.369784E-3
1.323500E-7	9.404043E-3
1.324000E-7	9.455432E-3
1.324500E-7	9.472561E-3
1.325000E-7	9.412608E-3
1.325500E-7	9.361220E-3
1.326000E-7	9.309831E-3
1.326500E-7	9.241313E-3
1.327000E-7	9.181360E-3
1.327500E-7	9.112843E-3
1.328000E-7	8.967242E-3
1.328500E-7	8.838771E-3
1.329000E-7	8.813077E-3
1.329500E-7	8.787383E-3
1.330000E-7	8.744559E-3
1.330500E-7	8.761689E-3
1.331000E-7	8.855901E-3
1.331500E-7	8.924418E-3
1.332000E-7	8.984372E-3
1.332500E-7	9.104278E-3
1.333000E-7	9.198490E-3
1.333500E-7	9.232749E-3
1.334000E-7	9.232749E-3
1.334500E-7	9.258443E-3
1.335000E-7	9.241313E-3
1.335500E-7	9.198490E-3
1.336000E-7	9.164231E-3
1.336500E-7	9.138537E-3
1.337000E-7	9.112843E-3
1.337500E-7	9.070019E-3
1.338000E-7	9.044325E-3
1.338500E-7	9.052889E-3
1.339000E-7	9.078584E-3
1.339500E-7	9.138537E-3
1.340000E-7	9.215619E-3
1.340500E-7	9.309831E-3
1.341000E-7	9.369784E-3
1.341500E-7	9.361220E-3
1.342000E-7	9.369784E-3
1.342500E-7	9.395479E-3
1.343000E-7	9.404043E-3
1.343500E-7	9.378349E-3
1.344000E-7	9.352655E-3
1.344500E-7	9.369784E-3
1.345000E-7	9.404043E-3
1.345500E-7	9.412608E-3
1.346000E-7	9.378349E-3
1.346500E-7	9.352655E-3
1.347000E-7	9.395479E-3
1.347500E-7	9.472561E-3
1.348000E-7	9.549644E-3
1.348500E-7	9.652421E-3
1.349000E-7	9.720938E-3
1.349500E-7	9.712374E-3
1.350000E-7	9.712374E-3
1.350500E-7	9.729503E-3
1.351000E-7	9.669550E-3
1.351500E-7	9.549644E-3
1.352000E-7	9.438302E-3
1.352500E-7	9.344090E-3
1.353000E-7	9.292702E-3
1.353500E-7	9.275572E-3
1.354000E-7	9.207055E-3
1.354500E-7	9.147101E-3
1.355000E-7	9.181360E-3
1.355500E-7	9.241313E-3
1.356000E-7	9.241313E-3
1.356500E-7	9.267008E-3
1.357000E-7	9.335526E-3
1.357500E-7	9.361220E-3
1.358000E-7	9.326961E-3
1.358500E-7	9.318396E-3
1.359000E-7	9.292702E-3
1.359500E-7	9.198490E-3
1.360000E-7	9.104278E-3
1.360500E-7	9.044325E-3
1.361000E-7	9.027195E-3
1.361500E-7	9.027195E-3
1.362000E-7	9.027195E-3
1.362500E-7	9.052889E-3
1.363000E-7	9.147101E-3
1.363500E-7	9.275572E-3
1.364000E-7	9.326961E-3
1.364500E-7	9.335526E-3
1.365000E-7	9.378349E-3
1.365500E-7	9.412608E-3
1.366000E-7	9.395479E-3
1.366500E-7	9.378349E-3
1.367000E-7	9.361220E-3
1.367500E-7	9.267008E-3
1.368000E-7	9.164231E-3
1.368500E-7	9.112843E-3
1.369000E-7	9.035760E-3
1.369500E-7	8.958677E-3
1.370000E-7	8.958677E-3
1.370500E-7	8.992936E-3
1.371000E-7	9.001501E-3
1.371500E-7	9.052889E-3
1.372000E-7	9.181360E-3
1.372500E-7	9.258443E-3
1.373000E-7	9.326961E-3
1.373500E-7	9.395479E-3
1.374000E-7	9.395479E-3
1.374500E-7	9.361220E-3
1.375000E-7	9.361220E-3
1.375500E-7	9.352655E-3
1.376000E-7	9.249878E-3
1.376500E-7	9.147101E-3
1.377000E-7	9.104278E-3
1.377500E-7	9.044325E-3
1.378000E-7	8.950113E-3
1.378500E-7	8.924418E-3
1.379000E-7	8.967242E-3
1.379500E-7	9.027195E-3
1.380000E-7	9.078584E-3
1.380500E-7	9.181360E-3
1.381000E-7	9.267008E-3
1.381500E-7	9.344090E-3
1.382000E-7	9.404043E-3
1.382500E-7	9.455432E-3
1.383000E-7	9.498255E-3
1.383500E-7	9.566773E-3
1.384000E-7	9.592467E-3
1.384500E-7	9.532514E-3
1.385000E-7	9.421173E-3
1.385500E-7	9.326961E-3
1.386000E-7	9.232749E-3
1.386500E-7	9.112843E-3
1.387000E-7	9.027195E-3
1.387500E-7	8.984372E-3
1.388000E-7	8.907289E-3
1.388500E-7	8.778818E-3
1.389000E-7	8.676041E-3
1.389500E-7	8.616088E-3
1.390000E-7	8.598959E-3
1.390500E-7	8.573265E-3
1.391000E-7	8.539006E-3
1.391500E-7	8.547570E-3
1.392000E-7	8.624653E-3
1.392500E-7	8.701735E-3
1.393000E-7	8.744559E-3
1.393500E-7	8.795948E-3
1.394000E-7	8.855901E-3
1.394500E-7	8.890160E-3
1.395000E-7	8.915854E-3
1.395500E-7	8.984372E-3
1.396000E-7	9.044325E-3
1.396500E-7	9.018631E-3
1.397000E-7	8.967242E-3
1.397500E-7	8.932983E-3
1.398000E-7	8.898724E-3
1.398500E-7	8.855901E-3
1.399000E-7	8.821642E-3
1.399500E-7	8.770253E-3
1.400000E-7	8.693171E-3
1.400500E-7	8.607523E-3
1.401000E-7	8.547570E-3
1.401500E-7	8.487617E-3
1.402000E-7	8.401970E-3
1.402500E-7	8.299193E-3
1.403000E-7	8.222111E-3
1.403500E-7	8.204981E-3
1.404000E-7	8.256370E-3
1.404500E-7	8.282064E-3
1.405000E-7	8.307758E-3
1.405500E-7	8.359146E-3
1.406000E-7	8.419099E-3
1.406500E-7	8.496182E-3
1.407000E-7	8.616088E-3
1.407500E-7	8.735994E-3
1.408000E-7	8.830206E-3
1.408500E-7	8.907289E-3
1.409000E-7	8.967242E-3
1.409500E-7	8.950113E-3
1.410000E-7	8.864465E-3
1.410500E-7	8.804512E-3
1.411000E-7	8.795948E-3
1.411500E-7	8.735994E-3
1.412000E-7	8.633218E-3
1.412500E-7	8.616088E-3
1.413000E-7	8.633218E-3
1.413500E-7	8.581829E-3
1.414000E-7	8.479053E-3
1.414500E-7	8.453358E-3
1.415000E-7	8.504747E-3
1.415500E-7	8.513311E-3
1.416000E-7	8.470488E-3
1.416500E-7	8.470488E-3
1.417000E-7	8.521876E-3
1.417500E-7	8.539006E-3
1.418000E-7	8.556135E-3
1.418500E-7	8.590394E-3
1.419000E-7	8.633218E-3
1.419500E-7	8.658912E-3
1.420000E-7	8.633218E-3
1.420500E-7	8.633218E-3
1.421000E-7	8.658912E-3
1.421500E-7	8.633218E-3
1.422000E-7	8.598959E-3
1.422500E-7	8.633218E-3
1.423000E-7	8.676041E-3
1.423500E-7	8.658912E-3
1.424000E-7	8.633218E-3
1.424500E-7	8.633218E-3
1.425000E-7	8.607523E-3
1.425500E-7	8.564700E-3
1.426000E-7	8.547570E-3
1.426500E-7	8.581829E-3
1.427000E-7	8.633218E-3
1.427500E-7	8.624653E-3
1.428000E-7	8.598959E-3
1.428500E-7	8.581829E-3
1.429000E-7	8.547570E-3
1.429500E-7	8.461923E-3
1.430000E-7	8.367711E-3
1.430500E-7	8.316323E-3
1.431000E-7	8.256370E-3
1.431500E-7	8.187852E-3
1.432000E-7	8.102204E-3
1.432500E-7	8.050816E-3
1.433000E-7	8.025122E-3
1.433500E-7	8.016557E-3
1.434000E-7	8.025122E-3
1.434500E-7	8.025122E-3
1.435000E-7	8.007992E-3
1.435500E-7	8.016557E-3
1.436000E-7	8.042251E-3
1.436500E-7	8.050816E-3
1.437000E-7	8.042251E-3
1.437500E-7	8.033687E-3
1.438000E-7	8.059381E-3
1.438500E-7	8.119334E-3
1.439000E-7	8.170722E-3
1.439500E-7	8.213546E-3
1.440000E-7	8.256370E-3
1.440500E-7	8.316323E-3
1.441000E-7	8.436229E-3
1.441500E-7	8.573265E-3
1.442000E-7	8.701735E-3
1.442500E-7	8.804512E-3
1.443000E-7	8.873030E-3
1.443500E-7	8.907289E-3
1.444000E-7	8.915854E-3
1.444500E-7	8.915854E-3
1.445000E-7	8.864465E-3
1.445500E-7	8.735994E-3
1.446000E-7	8.641782E-3
1.446500E-7	8.616088E-3
1.447000E-7	8.616088E-3
1.447500E-7	8.581829E-3
1.448000E-7	8.564700E-3
1.448500E-7	8.573265E-3
1.449000E-7	8.598959E-3
1.449500E-7	8.624653E-3
1.450000E-7	8.641782E-3
1.450500E-7	8.633218E-3
1.451000E-7	8.598959E-3
1.451500E-7	8.547570E-3
1.452000E-7	8.470488E-3
1.452500E-7	8.384840E-3
1.453000E-7	8.307758E-3
1.453500E-7	8.239240E-3
1.454000E-7	8.162158E-3
1.454500E-7	8.110769E-3
1.455000E-7	8.059381E-3
1.455500E-7	8.033687E-3
1.456000E-7	8.067945E-3
1.456500E-7	8.162158E-3
1.457000E-7	8.239240E-3
1.457500E-7	8.290628E-3
1.458000E-7	8.376276E-3
1.458500E-7	8.479053E-3
1.459000E-7	8.547570E-3
1.459500E-7	8.581829E-3
1.460000E-7	8.624653E-3
1.460500E-7	8.658912E-3
1.461000E-7	8.684606E-3
1.461500E-7	8.701735E-3
1.462000E-7	8.693171E-3
1.462500E-7	8.701735E-3
1.463000E-7	8.701735E-3
1.463500E-7	8.633218E-3
1.464000E-7	8.521876E-3
1.464500E-7	8.419099E-3
1.465000E-7	8.307758E-3
1.465500E-7	8.136463E-3
1.466000E-7	7.939475E-3
1.466500E-7	7.759615E-3
1.467000E-7	7.656838E-3
1.467500E-7	7.614015E-3
1.468000E-7	7.631144E-3
1.468500E-7	7.682533E-3
1.469000E-7	7.811004E-3
1.469500E-7	7.965169E-3
1.470000E-7	8.162158E-3
1.470500E-7	8.427664E-3
1.471000E-7	8.667477E-3
1.471500E-7	8.778818E-3
1.472000E-7	8.830206E-3
1.472500E-7	8.873030E-3
1.473000E-7	8.830206E-3
1.473500E-7	8.676041E-3
1.474000E-7	8.513311E-3
1.474500E-7	8.350582E-3
1.475000E-7	8.196416E-3
1.475500E-7	8.110769E-3
1.476000E-7	8.033687E-3
1.476500E-7	7.956604E-3
1.477000E-7	7.990863E-3
1.477500E-7	8.110769E-3
1.478000E-7	8.230675E-3
1.478500E-7	8.376276E-3
1.479000E-7	8.607523E-3
1.479500E-7	8.761689E-3
1.480000E-7	8.770253E-3
1.480500E-7	8.753124E-3
1.481000E-7	8.787383E-3
1.481500E-7	8.718865E-3
1.482000E-7	8.564700E-3
1.482500E-7	8.496182E-3
1.483000E-7	8.479053E-3
1.483500E-7	8.410535E-3
1.484000E-7	8.350582E-3
1.484500E-7	8.367711E-3
1.485000E-7	8.401970E-3
1.485500E-7	8.427664E-3
1.486000E-7	8.470488E-3
1.486500E-7	8.513311E-3
1.487000E-7	8.521876E-3
1.487500E-7	8.513311E-3
1.488000E-7	8.479053E-3
1.488500E-7	8.401970E-3
1.489000E-7	8.333452E-3
1.489500E-7	8.264934E-3
1.490000E-7	8.127899E-3
1.490500E-7	8.007992E-3
1.491000E-7	7.982298E-3
1.491500E-7	7.982298E-3
1.492000E-7	7.939475E-3
1.492500E-7	7.973733E-3
1.493000E-7	8.067945E-3
1.493500E-7	8.170722E-3
1.494000E-7	8.264934E-3
1.494500E-7	8.350582E-3
1.495000E-7	8.436229E-3
1.495500E-7	8.547570E-3
1.496000E-7	8.667477E-3
1.496500E-7	8.684606E-3
1.497000E-7	8.667477E-3
1.497500E-7	8.684606E-3
1.498000E-7	8.641782E-3
1.498500E-7	8.521876E-3
1.499000E-7	8.419099E-3
1.499500E-7	8.324887E-3
1.500000E-7	8.187852E-3
1.500500E-7	8.076510E-3
1.501000E-7	8.042251E-3
1.501500E-7	8.042251E-3
1.502000E-7	8.016557E-3
1.502500E-7	8.016557E-3
1.503000E-7	8.102204E-3
1.503500E-7	8.213546E-3
1.504000E-7	8.264934E-3
1.504500E-7	8.299193E-3
1.505000E-7	8.393405E-3
1.505500E-7	8.504747E-3
1.506000E-7	8.556135E-3
1.506500E-7	8.581829E-3
1.507000E-7	8.650347E-3
1.507500E-7	8.710300E-3
1.508000E-7	8.693171E-3
1.508500E-7	8.658912E-3
1.509000E-7	8.693171E-3
1.509500E-7	8.727430E-3
1.510000E-7	8.667477E-3
1.510500E-7	8.590394E-3
1.511000E-7	8.581829E-3
1.511500E-7	8.573265E-3
1.512000E-7	8.513311E-3
1.512500E-7	8.427664E-3
1.513000E-7	8.324887E-3
1.513500E-7	8.204981E-3
1.514000E-7	8.145028E-3
1.514500E-7	8.145028E-3
1.515000E-7	8.110769E-3
1.515500E-7	8.050816E-3
1.516000E-7	8.042251E-3
1.516500E-7	8.025122E-3
1.517000E-7	7.948039E-3
1.517500E-7	7.853827E-3
1.518000E-7	7.793874E-3
1.518500E-7	7.759615E-3
1.519000E-7	7.716792E-3
1.519500E-7	7.682533E-3
1.520000E-7	7.605450E-3
1.520500E-7	7.554062E-3
1.521000E-7	7.554062E-3
1.521500E-7	7.554062E-3
1.522000E-7	7.554062E-3
1.522500E-7	7.631144E-3
1.523000E-7	7.751050E-3
1.523500E-7	7.828133E-3
1.524000E-7	7.905216E-3
1.524500E-7	8.102204E-3
1.525000E-7	8.299193E-3
1.525500E-7	8.367711E-3
1.526000E-7	8.401970E-3
1.526500E-7	8.496182E-3
1.527000E-7	8.598959E-3
1.527500E-7	8.650347E-3
1.528000E-7	8.641782E-3
1.528500E-7	8.598959E-3
1.529000E-7	8.521876E-3
1.529500E-7	8.444794E-3
1.530000E-7	8.359146E-3
1.530500E-7	8.239240E-3
1.531000E-7	8.162158E-3
1.531500E-7	8.102204E-3
1.532000E-7	8.050816E-3
1.532500E-7	8.067945E-3
1.533000E-7	8.170722E-3
1.533500E-7	8.230675E-3
1.534000E-7	8.264934E-3
1.534500E-7	8.359146E-3
1.535000E-7	8.487617E-3
1.535500E-7	8.556135E-3
1.536000E-7	8.590394E-3
1.536500E-7	8.633218E-3
1.537000E-7	8.650347E-3
1.537500E-7	8.658912E-3
1.538000E-7	8.684606E-3
1.538500E-7	8.650347E-3
1.539000E-7	8.573265E-3
1.539500E-7	8.530441E-3
1.540000E-7	8.496182E-3
1.540500E-7	8.419099E-3
1.541000E-7	8.333452E-3
1.541500E-7	8.282064E-3
1.542000E-7	8.239240E-3
1.542500E-7	8.196416E-3
1.543000E-7	8.187852E-3
1.543500E-7	8.187852E-3
1.544000E-7	8.145028E-3
1.544500E-7	8.162158E-3
1.545000E-7	8.239240E-3
1.545500E-7	8.282064E-3
1.546000E-7	8.299193E-3
1.546500E-7	8.350582E-3
1.547000E-7	8.419099E-3
1.547500E-7	8.461923E-3
1.548000E-7	8.487617E-3
1.548500E-7	8.496182E-3
1.549000E-7	8.504747E-3
1.549500E-7	8.487617E-3
1.550000E-7	8.419099E-3
1.550500E-7	8.342017E-3
1.551000E-7	8.290628E-3
1.551500E-7	8.230675E-3
1.552000E-7	8.136463E-3
1.552500E-7	8.153593E-3
1.553000E-7	8.239240E-3
1.553500E-7	8.264934E-3
1.554000E-7	8.290628E-3
1.554500E-7	8.436229E-3
1.555000E-7	8.607523E-3
1.555500E-7	8.693171E-3
1.556000E-7	8.753124E-3
1.556500E-7	8.795948E-3
1.557000E-7	8.813077E-3
1.557500E-7	8.795948E-3
1.558000E-7	8.735994E-3
1.558500E-7	8.581829E-3
1.559000E-7	8.359146E-3
1.559500E-7	8.145028E-3
1.560000E-7	7.939475E-3
1.560500E-7	7.776745E-3
1.561000E-7	7.648274E-3
1.561500E-7	7.519803E-3
1.562000E-7	7.374202E-3
1.562500E-7	7.288555E-3
1.563000E-7	7.254296E-3
1.563500E-7	7.220037E-3
1.564000E-7	7.185778E-3
1.564500E-7	7.220037E-3
1.565000E-7	7.339943E-3
1.565500E-7	7.468414E-3
1.566000E-7	7.596885E-3
1.566500E-7	7.759615E-3
1.567000E-7	7.913780E-3
1.567500E-7	7.990863E-3
1.568000E-7	8.042251E-3
1.568500E-7	8.136463E-3
1.569000E-7	8.256370E-3
1.569500E-7	8.273499E-3
1.570000E-7	8.239240E-3
1.570500E-7	8.196416E-3
1.571000E-7	8.136463E-3
1.571500E-7	8.076510E-3
1.572000E-7	8.025122E-3
1.572500E-7	7.990863E-3
1.573000E-7	7.930910E-3
1.573500E-7	7.896651E-3
1.574000E-7	7.896651E-3
1.574500E-7	7.965169E-3
1.575000E-7	8.076510E-3
1.575500E-7	8.204981E-3
1.576000E-7	8.307758E-3
1.576500E-7	8.384840E-3
1.577000E-7	8.436229E-3
1.577500E-7	8.419099E-3
1.578000E-7	8.333452E-3
1.578500E-7	8.204981E-3
1.579000E-7	8.050816E-3
1.579500E-7	7.879521E-3
1.580000E-7	7.656838E-3
1.580500E-7	7.442720E-3
1.581000E-7	7.271426E-3
1.581500E-7	7.125825E-3
1.582000E-7	6.997354E-3
1.582500E-7	6.954531E-3
1.583000E-7	6.997354E-3
1.583500E-7	7.100131E-3
1.584000E-7	7.245731E-3
1.584500E-7	7.417026E-3
1.585000E-7	7.596885E-3
1.585500E-7	7.716792E-3
1.586000E-7	7.785309E-3
1.586500E-7	7.870957E-3
1.587000E-7	7.973733E-3
1.587500E-7	8.016557E-3
1.588000E-7	7.948039E-3
1.588500E-7	7.879521E-3
1.589000E-7	7.870957E-3
1.589500E-7	7.793874E-3
1.590000E-7	7.725356E-3
1.590500E-7	7.751050E-3
1.591000E-7	7.802439E-3
1.591500E-7	7.751050E-3
1.592000E-7	7.708227E-3
1.592500E-7	7.785309E-3
1.593000E-7	7.862392E-3
1.593500E-7	7.862392E-3
1.594000E-7	7.853827E-3
1.594500E-7	7.879521E-3
1.595000E-7	7.939475E-3
1.595500E-7	8.007992E-3
1.596000E-7	8.007992E-3
1.596500E-7	7.999428E-3
1.597000E-7	8.042251E-3
1.597500E-7	8.025122E-3
1.598000E-7	7.922345E-3
1.598500E-7	7.888086E-3
1.599000E-7	7.939475E-3
1.599500E-7	7.956604E-3
1.600000E-7	7.922345E-3
1.600500E-7	7.939475E-3
1.601000E-7	7.956604E-3
1.601500E-7	7.922345E-3
1.602000E-7	7.879521E-3
1.602500E-7	7.862392E-3
1.603000E-7	7.828133E-3
1.603500E-7	7.768180E-3
1.604000E-7	7.742486E-3
1.604500E-7	7.699662E-3
1.605000E-7	7.631144E-3
1.605500E-7	7.579756E-3
1.606000E-7	7.571191E-3
1.606500E-7	7.579756E-3
1.607000E-7	7.571191E-3
1.607500E-7	7.614015E-3
1.608000E-7	7.656838E-3
1.608500E-7	7.648274E-3
1.609000E-7	7.699662E-3
1.609500E-7	7.802439E-3
1.610000E-7	7.845263E-3
1.610500E-7	7.776745E-3
1.611000E-7	7.708227E-3
1.611500E-7	7.673968E-3
1.612000E-7	7.622580E-3
1.612500E-7	7.485544E-3
1.613000E-7	7.331379E-3
1.613500E-7	7.220037E-3
1.614000E-7	7.160084E-3
1.614500E-7	7.125825E-3
1.615000E-7	7.125825E-3
1.615500E-7	7.160084E-3
1.616000E-7	7.160084E-3
1.616500E-7	7.202908E-3
1.617000E-7	7.322814E-3
1.617500E-7	7.494109E-3
1.618000E-7	7.656838E-3
1.618500E-7	7.811004E-3
1.619000E-7	7.922345E-3
1.619500E-7	7.990863E-3
1.620000E-7	8.042251E-3
1.620500E-7	8.102204E-3
1.621000E-7	8.085075E-3
1.621500E-7	8.042251E-3
1.622000E-7	7.999428E-3
1.622500E-7	7.939475E-3
1.623000E-7	7.879521E-3
1.623500E-7	7.896651E-3
1.624000E-7	7.939475E-3
1.624500E-7	7.922345E-3
1.625000E-7	7.948039E-3
1.625500E-7	8.025122E-3
1.626000E-7	8.025122E-3
1.626500E-7	8.016557E-3
1.627000E-7	8.042251E-3
1.627500E-7	8.033687E-3
1.628000E-7	7.930910E-3
1.628500E-7	7.836698E-3
1.629000E-7	7.793874E-3
1.629500E-7	7.682533E-3
1.630000E-7	7.536932E-3
1.630500E-7	7.494109E-3
1.631000E-7	7.528368E-3
1.631500E-7	7.536932E-3
1.632000E-7	7.554062E-3
1.632500E-7	7.631144E-3
1.633000E-7	7.716792E-3
1.633500E-7	7.793874E-3
1.634000E-7	7.870957E-3
1.634500E-7	7.896651E-3
1.635000E-7	7.905216E-3
1.635500E-7	7.948039E-3
1.636000E-7	7.982298E-3
1.636500E-7	7.956604E-3
1.637000E-7	7.913780E-3
1.637500E-7	7.862392E-3
1.638000E-7	7.802439E-3
1.638500E-7	7.768180E-3
1.639000E-7	7.776745E-3
1.639500E-7	7.759615E-3
1.640000E-7	7.708227E-3
1.640500E-7	7.691097E-3
1.641000E-7	7.716792E-3
1.641500E-7	7.733921E-3
1.642000E-7	7.725356E-3
1.642500E-7	7.691097E-3
1.643000E-7	7.656838E-3
1.643500E-7	7.656838E-3
1.644000E-7	7.639709E-3
1.644500E-7	7.545497E-3
1.645000E-7	7.451285E-3
1.645500E-7	7.417026E-3
1.646000E-7	7.391332E-3
1.646500E-7	7.348508E-3
1.647000E-7	7.348508E-3
1.647500E-7	7.374202E-3
1.648000E-7	7.408461E-3
1.648500E-7	7.502673E-3
1.649000E-7	7.614015E-3
1.649500E-7	7.639709E-3
1.650000E-7	7.605450E-3
1.650500E-7	7.588321E-3
1.651000E-7	7.562626E-3
1.651500E-7	7.476979E-3
1.652000E-7	7.425591E-3
1.652500E-7	7.425591E-3
1.653000E-7	7.399897E-3
1.653500E-7	7.374202E-3
1.654000E-7	7.442720E-3
1.654500E-7	7.571191E-3
1.655000E-7	7.656838E-3
1.655500E-7	7.725356E-3
1.656000E-7	7.853827E-3
1.656500E-7	7.965169E-3
1.657000E-7	8.059381E-3
1.657500E-7	8.119334E-3
1.658000E-7	8.093640E-3
1.658500E-7	7.990863E-3
1.659000E-7	7.930910E-3
1.659500E-7	7.879521E-3
1.660000E-7	7.716792E-3
1.660500E-7	7.554062E-3
1.661000E-7	7.442720E-3
1.661500E-7	7.314249E-3
1.662000E-7	7.185778E-3
1.662500E-7	7.185778E-3
1.663000E-7	7.185778E-3
1.663500E-7	7.117260E-3
1.664000E-7	7.065872E-3
1.664500E-7	7.074437E-3
1.665000E-7	7.048743E-3
1.665500E-7	7.023048E-3
1.666000E-7	7.074437E-3
1.666500E-7	7.125825E-3
1.667000E-7	7.134390E-3
1.667500E-7	7.134390E-3
1.668000E-7	7.160084E-3
1.668500E-7	7.211473E-3
1.669000E-7	7.245731E-3
1.669500E-7	7.245731E-3
1.670000E-7	7.202908E-3
1.670500E-7	7.202908E-3
1.671000E-7	7.228602E-3
1.671500E-7	7.228602E-3
1.672000E-7	7.202908E-3
1.672500E-7	7.211473E-3
1.673000E-7	7.279990E-3
1.673500E-7	7.348508E-3
1.674000E-7	7.425591E-3
1.674500E-7	7.494109E-3
1.675000E-7	7.554062E-3
1.675500E-7	7.614015E-3
1.676000E-7	7.708227E-3
1.676500E-7	7.811004E-3
1.677000E-7	7.853827E-3
1.677500E-7	7.828133E-3
1.678000E-7	7.785309E-3
1.678500E-7	7.776745E-3
1.679000E-7	7.751050E-3
1.679500E-7	7.682533E-3
1.680000E-7	7.622580E-3
1.680500E-7	7.596885E-3
1.681000E-7	7.588321E-3
1.681500E-7	7.502673E-3
1.682000E-7	7.357073E-3
1.682500E-7	7.262861E-3
1.683000E-7	7.220037E-3
1.683500E-7	7.177214E-3
1.684000E-7	7.134390E-3
1.684500E-7	7.074437E-3
1.685000E-7	7.005919E-3
1.685500E-7	6.971660E-3
1.686000E-7	7.023048E-3
1.686500E-7	7.151519E-3
1.687000E-7	7.271426E-3
1.687500E-7	7.357073E-3
1.688000E-7	7.442720E-3
1.688500E-7	7.562626E-3
1.689000E-7	7.708227E-3
1.689500E-7	7.785309E-3
1.690000E-7	7.793874E-3
1.690500E-7	7.802439E-3
1.691000E-7	7.785309E-3
1.691500E-7	7.648274E-3
1.692000E-7	7.476979E-3
1.692500E-7	7.391332E-3
1.693000E-7	7.374202E-3
1.693500E-7	7.348508E-3
1.694000E-7	7.322814E-3
1.694500E-7	7.374202E-3
1.695000E-7	7.476979E-3
1.695500E-7	7.579756E-3
1.696000E-7	7.656838E-3
1.696500E-7	7.742486E-3
1.697000E-7	7.845263E-3
1.697500E-7	7.879521E-3
1.698000E-7	7.862392E-3
1.698500E-7	7.836698E-3
1.699000E-7	7.785309E-3
1.699500E-7	7.665403E-3
1.700000E-7	7.468414E-3
1.700500E-7	7.288555E-3
1.701000E-7	7.151519E-3
1.701500E-7	7.031613E-3
1.702000E-7	6.911707E-3
1.702500E-7	6.817495E-3
1.703000E-7	6.800365E-3
1.703500E-7	6.817495E-3
1.704000E-7	6.834624E-3
1.704500E-7	6.920272E-3
1.705000E-7	7.100131E-3
1.705500E-7	7.254296E-3
1.706000E-7	7.357073E-3
1.706500E-7	7.459850E-3
1.707000E-7	7.579756E-3
1.707500E-7	7.648274E-3
1.708000E-7	7.614015E-3
1.708500E-7	7.614015E-3
1.709000E-7	7.648274E-3
1.709500E-7	7.631144E-3
1.710000E-7	7.511238E-3
1.710500E-7	7.451285E-3
1.711000E-7	7.476979E-3
1.711500E-7	7.468414E-3
1.712000E-7	7.391332E-3
1.712500E-7	7.314249E-3
1.713000E-7	7.279990E-3
1.713500E-7	7.262861E-3
1.714000E-7	7.177214E-3
1.714500E-7	7.057307E-3
1.715000E-7	6.945966E-3
1.715500E-7	6.877448E-3
1.716000E-7	6.757542E-3
1.716500E-7	6.603377E-3
1.717000E-7	6.500600E-3
1.717500E-7	6.483470E-3
1.718000E-7	6.492035E-3
1.718500E-7	6.560553E-3
1.719000E-7	6.680459E-3
1.719500E-7	6.757542E-3
1.720000E-7	6.826060E-3
1.720500E-7	6.971660E-3
1.721000E-7	7.160084E-3
1.721500E-7	7.279990E-3
1.722000E-7	7.348508E-3
1.722500E-7	7.442720E-3
1.723000E-7	7.536932E-3
1.723500E-7	7.571191E-3
1.724000E-7	7.588321E-3
1.724500E-7	7.622580E-3
1.725000E-7	7.673968E-3
1.725500E-7	7.691097E-3
1.726000E-7	7.691097E-3
1.726500E-7	7.699662E-3
1.727000E-7	7.716792E-3
1.727500E-7	7.742486E-3
1.728000E-7	7.776745E-3
1.728500E-7	7.785309E-3
1.729000E-7	7.776745E-3
1.729500E-7	7.759615E-3
1.730000E-7	7.725356E-3
1.730500E-7	7.648274E-3
1.731000E-7	7.579756E-3
1.731500E-7	7.536932E-3
1.732000E-7	7.511238E-3
1.732500E-7	7.459850E-3
1.733000E-7	7.399897E-3
1.733500E-7	7.339943E-3
1.734000E-7	7.279990E-3
1.734500E-7	7.245731E-3
1.735000E-7	7.254296E-3
1.735500E-7	7.202908E-3
1.736000E-7	7.117260E-3
1.736500E-7	7.100131E-3
1.737000E-7	7.134390E-3
1.737500E-7	7.125825E-3
1.738000E-7	7.083002E-3
1.738500E-7	7.100131E-3
1.739000E-7	7.117260E-3
1.739500E-7	7.065872E-3
1.740000E-7	7.074437E-3
1.740500E-7	7.151519E-3
1.741000E-7	7.202908E-3
1.741500E-7	7.228602E-3
1.742000E-7	7.254296E-3
1.742500E-7	7.305685E-3
1.743000E-7	7.331379E-3
1.743500E-7	7.357073E-3
1.744000E-7	7.365638E-3
1.744500E-7	7.408461E-3
1.745000E-7	7.494109E-3
1.745500E-7	7.511238E-3
1.746000E-7	7.468414E-3
1.746500E-7	7.459850E-3
1.747000E-7	7.434155E-3
1.747500E-7	7.391332E-3
1.748000E-7	7.391332E-3
1.748500E-7	7.425591E-3
1.749000E-7	7.399897E-3
1.749500E-7	7.348508E-3
1.750000E-7	7.357073E-3
1.750500E-7	7.357073E-3
1.751000E-7	7.288555E-3
1.751500E-7	7.245731E-3
1.752000E-7	7.271426E-3
1.752500E-7	7.271426E-3
1.753000E-7	7.245731E-3
1.753500E-7	7.262861E-3
1.754000E-7	7.297120E-3
1.754500E-7	7.314249E-3
1.755000E-7	7.348508E-3
1.755500E-7	7.399897E-3
1.756000E-7	7.399897E-3
1.756500E-7	7.408461E-3
1.757000E-7	7.382767E-3
1.757500E-7	7.331379E-3
1.758000E-7	7.305685E-3
1.758500E-7	7.348508E-3
1.759000E-7	7.314249E-3
1.759500E-7	7.245731E-3
1.760000E-7	7.237167E-3
1.760500E-7	7.288555E-3
1.761000E-7	7.288555E-3
1.761500E-7	7.297120E-3
1.762000E-7	7.314249E-3
1.762500E-7	7.314249E-3
1.763000E-7	7.348508E-3
1.763500E-7	7.399897E-3
1.764000E-7	7.408461E-3
1.764500E-7	7.434155E-3
1.765000E-7	7.545497E-3
1.765500E-7	7.614015E-3
1.766000E-7	7.545497E-3
1.766500E-7	7.476979E-3
1.767000E-7	7.459850E-3
1.767500E-7	7.348508E-3
1.768000E-7	7.202908E-3
1.768500E-7	7.151519E-3
1.769000E-7	7.117260E-3
1.769500E-7	7.005919E-3
1.770000E-7	6.945966E-3
1.770500E-7	6.988790E-3
1.771000E-7	7.031613E-3
1.771500E-7	7.065872E-3
1.772000E-7	7.083002E-3
1.772500E-7	7.117260E-3
1.773000E-7	7.168649E-3
1.773500E-7	7.245731E-3
1.774000E-7	7.279990E-3
1.774500E-7	7.288555E-3
1.775000E-7	7.279990E-3
1.775500E-7	7.211473E-3
1.776000E-7	7.160084E-3
1.776500E-7	7.177214E-3
1.777000E-7	7.168649E-3
1.777500E-7	7.100131E-3
1.778000E-7	7.125825E-3
1.778500E-7	7.262861E-3
1.779000E-7	7.314249E-3
1.779500E-7	7.314249E-3
1.780000E-7	7.357073E-3
1.780500E-7	7.399897E-3
1.781000E-7	7.399897E-3
1.781500E-7	7.391332E-3
1.782000E-7	7.365638E-3
1.782500E-7	7.279990E-3
1.783000E-7	7.168649E-3
1.783500E-7	7.040178E-3
1.784000E-7	6.911707E-3
1.784500E-7	6.800365E-3
1.785000E-7	6.697589E-3
1.785500E-7	6.620506E-3
1.786000E-7	6.586247E-3
1.786500E-7	6.594812E-3
1.787000E-7	6.611941E-3
1.787500E-7	6.629071E-3
1.788000E-7	6.706153E-3
1.788500E-7	6.851754E-3
1.789000E-7	6.988790E-3
1.789500E-7	7.108696E-3
1.790000E-7	7.177214E-3
1.790500E-7	7.220037E-3
1.791000E-7	7.254296E-3
1.791500E-7	7.237167E-3
1.792000E-7	7.151519E-3
1.792500E-7	7.065872E-3
1.793000E-7	6.997354E-3
1.793500E-7	6.877448E-3
1.794000E-7	6.731848E-3
1.794500E-7	6.663330E-3
1.795000E-7	6.629071E-3
1.795500E-7	6.551988E-3
1.796000E-7	6.474906E-3
1.796500E-7	6.517729E-3
1.797000E-7	6.603377E-3
1.797500E-7	6.663330E-3
1.798000E-7	6.774671E-3
1.798500E-7	6.945966E-3
1.799000E-7	7.065872E-3
1.799500E-7	7.151519E-3
1.800000E-7	7.271426E-3
1.800500E-7	7.357073E-3
1.801000E-7	7.399897E-3
1.801500E-7	7.442720E-3
1.802000E-7	7.459850E-3
1.802500E-7	7.391332E-3
1.803000E-7	7.322814E-3
1.803500E-7	7.271426E-3
1.804000E-7	7.194343E-3
1.804500E-7	7.117260E-3
1.805000E-7	7.048743E-3
1.805500E-7	6.963095E-3
1.806000E-7	6.894578E-3
1.806500E-7	6.920272E-3
1.807000E-7	6.980225E-3
1.807500E-7	7.005919E-3
1.808000E-7	7.074437E-3
1.808500E-7	7.228602E-3
1.809000E-7	7.382767E-3
1.809500E-7	7.459850E-3
1.810000E-7	7.451285E-3
1.810500E-7	7.451285E-3
1.811000E-7	7.476979E-3
1.811500E-7	7.434155E-3
1.812000E-7	7.279990E-3
1.812500E-7	7.117260E-3
1.813000E-7	6.980225E-3
1.813500E-7	6.851754E-3
1.814000E-7	6.714718E-3
1.814500E-7	6.586247E-3
1.815000E-7	6.534859E-3
1.815500E-7	6.509165E-3
1.816000E-7	6.492035E-3
1.816500E-7	6.543424E-3
1.817000E-7	6.646200E-3
1.817500E-7	6.731848E-3
1.818000E-7	6.783236E-3
1.818500E-7	6.868883E-3
1.819000E-7	6.945966E-3
1.819500E-7	6.928836E-3
1.820000E-7	6.843189E-3
1.820500E-7	6.766107E-3
1.821000E-7	6.697589E-3
1.821500E-7	6.611941E-3
1.822000E-7	6.543424E-3
1.822500E-7	6.483470E-3
1.823000E-7	6.449212E-3
1.823500E-7	6.466341E-3
1.824000E-7	6.543424E-3
1.824500E-7	6.671895E-3
1.825000E-7	6.817495E-3
1.825500E-7	6.963095E-3
1.826000E-7	7.108696E-3
1.826500E-7	7.288555E-3
1.827000E-7	7.459850E-3
1.827500E-7	7.596885E-3
1.828000E-7	7.648274E-3
1.828500E-7	7.665403E-3
1.829000E-7	7.682533E-3
1.829500E-7	7.596885E-3
1.830000E-7	7.425591E-3
1.830500E-7	7.297120E-3
1.831000E-7	7.177214E-3
1.831500E-7	6.963095E-3
1.832000E-7	6.740412E-3
1.832500E-7	6.654765E-3
1.833000E-7	6.629071E-3
1.833500E-7	6.654765E-3
1.834000E-7	6.766107E-3
1.834500E-7	6.894578E-3
1.835000E-7	7.014484E-3
1.835500E-7	7.185778E-3
1.836000E-7	7.357073E-3
1.836500E-7	7.494109E-3
1.837000E-7	7.648274E-3
1.837500E-7	7.785309E-3
1.838000E-7	7.793874E-3
1.838500E-7	7.733921E-3
1.839000E-7	7.682533E-3
1.839500E-7	7.562626E-3
1.840000E-7	7.357073E-3
1.840500E-7	7.177214E-3
1.841000E-7	7.005919E-3
1.841500E-7	6.817495E-3
1.842000E-7	6.646200E-3
1.842500E-7	6.543424E-3
1.843000E-7	6.466341E-3
1.843500E-7	6.414953E-3
1.844000E-7	6.440647E-3
1.844500E-7	6.517729E-3
1.845000E-7	6.620506E-3
1.845500E-7	6.714718E-3
1.846000E-7	6.783236E-3
1.846500E-7	6.868883E-3
1.847000E-7	6.980225E-3
1.847500E-7	7.031613E-3
1.848000E-7	6.997354E-3
1.848500E-7	6.945966E-3
1.849000E-7	6.954531E-3
1.849500E-7	6.988790E-3
1.850000E-7	6.954531E-3
1.850500E-7	6.920272E-3
1.851000E-7	6.945966E-3
1.851500E-7	6.963095E-3
1.852000E-7	6.937401E-3
1.852500E-7	6.937401E-3
1.853000E-7	6.963095E-3
1.853500E-7	6.954531E-3
1.854000E-7	6.903142E-3
1.854500E-7	6.911707E-3
1.855000E-7	6.954531E-3
1.855500E-7	6.954531E-3
1.856000E-7	6.851754E-3
1.856500E-7	6.791801E-3
1.857000E-7	6.834624E-3
1.857500E-7	6.868883E-3
1.858000E-7	6.868883E-3
1.858500E-7	6.886013E-3
1.859000E-7	6.928836E-3
1.859500E-7	6.928836E-3
1.860000E-7	6.894578E-3
1.860500E-7	6.894578E-3
1.861000E-7	6.877448E-3
1.861500E-7	6.843189E-3
1.862000E-7	6.817495E-3
1.862500E-7	6.817495E-3
1.863000E-7	6.817495E-3
1.863500E-7	6.774671E-3
1.864000E-7	6.706153E-3
1.864500E-7	6.689024E-3
1.865000E-7	6.748977E-3
1.865500E-7	6.808930E-3
1.866000E-7	6.843189E-3
1.866500E-7	6.903142E-3
1.867000E-7	6.971660E-3
1.867500E-7	6.988790E-3
1.868000E-7	6.980225E-3
1.868500E-7	6.997354E-3
1.869000E-7	6.980225E-3
1.869500E-7	6.886013E-3
1.870000E-7	6.723283E-3
1.870500E-7	6.586247E-3
1.871000E-7	6.483470E-3
1.871500E-7	6.363564E-3
1.872000E-7	6.235093E-3
1.872500E-7	6.166575E-3
1.873000E-7	6.149446E-3
1.873500E-7	6.149446E-3
1.874000E-7	6.183705E-3
1.874500E-7	6.312176E-3
1.875000E-7	6.492035E-3
1.875500E-7	6.654765E-3
1.876000E-7	6.808930E-3
1.876500E-7	6.971660E-3
1.877000E-7	7.091566E-3
1.877500E-7	7.134390E-3
1.878000E-7	7.142955E-3
1.878500E-7	7.177214E-3
1.879000E-7	7.177214E-3
1.879500E-7	7.117260E-3
1.880000E-7	7.048743E-3
1.880500E-7	7.023048E-3
1.881000E-7	7.040178E-3
1.881500E-7	7.065872E-3
1.882000E-7	7.065872E-3
1.882500E-7	7.040178E-3
1.883000E-7	7.005919E-3
1.883500E-7	6.988790E-3
1.884000E-7	6.954531E-3
1.884500E-7	6.920272E-3
1.885000E-7	6.903142E-3
1.885500E-7	6.843189E-3
1.886000E-7	6.740412E-3
1.886500E-7	6.663330E-3
1.887000E-7	6.594812E-3
1.887500E-7	6.551988E-3
1.888000E-7	6.509165E-3
1.888500E-7	6.457776E-3
1.889000E-7	6.414953E-3
1.889500E-7	6.474906E-3
1.890000E-7	6.560553E-3
1.890500E-7	6.577683E-3
1.891000E-7	6.569118E-3
1.891500E-7	6.611941E-3
1.892000E-7	6.663330E-3
1.892500E-7	6.671895E-3
1.893000E-7	6.689024E-3
1.893500E-7	6.706153E-3
1.894000E-7	6.680459E-3
1.894500E-7	6.697589E-3
1.895000E-7	6.723283E-3
1.895500E-7	6.689024E-3
1.896000E-7	6.663330E-3
1.896500E-7	6.697589E-3
1.897000E-7	6.766107E-3
1.897500E-7	6.757542E-3
1.898000E-7	6.714718E-3
1.898500E-7	6.697589E-3
1.899000E-7	6.714718E-3
1.899500E-7	6.731848E-3
1.900000E-7	6.714718E-3
1.900500E-7	6.740412E-3
1.901000E-7	6.766107E-3
1.901500E-7	6.766107E-3
1.902000E-7	6.783236E-3
1.902500E-7	6.826060E-3
1.903000E-7	6.894578E-3
1.903500E-7	6.963095E-3
1.904000E-7	7.014484E-3
1.904500E-7	7.057307E-3
1.905000E-7	7.125825E-3
1.905500E-7	7.220037E-3
1.906000E-7	7.271426E-3
1.906500E-7	7.237167E-3
1.907000E-7	7.125825E-3
1.907500E-7	6.980225E-3
1.908000E-7	6.826060E-3
1.908500E-7	6.697589E-3
1.909000E-7	6.586247E-3
1.909500E-7	6.474906E-3
1.910000E-7	6.363564E-3
1.910500E-7	6.295046E-3
1.911000E-7	6.243658E-3
1.911500E-7	6.192270E-3
1.912000E-7	6.158011E-3
1.912500E-7	6.200834E-3
1.913000E-7	6.269352E-3
1.913500E-7	6.329305E-3
1.914000E-7	6.423517E-3
1.914500E-7	6.543424E-3
1.915000E-7	6.663330E-3
1.915500E-7	6.757542E-3
1.916000E-7	6.851754E-3
1.916500E-7	6.937401E-3
1.917000E-7	7.083002E-3
1.917500E-7	7.211473E-3
1.918000E-7	7.271426E-3
1.918500E-7	7.305685E-3
1.919000E-7	7.365638E-3
1.919500E-7	7.382767E-3
1.920000E-7	7.382767E-3
1.920500E-7	7.408461E-3
1.921000E-7	7.391332E-3
1.921500E-7	7.254296E-3
1.922000E-7	7.065872E-3
1.922500E-7	6.920272E-3
1.923000E-7	6.783236E-3
1.923500E-7	6.663330E-3
1.924000E-7	6.543424E-3
1.924500E-7	6.406388E-3
1.925000E-7	6.303611E-3
1.925500E-7	6.329305E-3
1.926000E-7	6.389258E-3
1.926500E-7	6.449212E-3
1.927000E-7	6.534859E-3
1.927500E-7	6.611941E-3
1.928000E-7	6.654765E-3
1.928500E-7	6.748977E-3
1.929000E-7	6.886013E-3
1.929500E-7	6.963095E-3
1.930000E-7	6.945966E-3
1.930500E-7	6.945966E-3
1.931000E-7	6.937401E-3
1.931500E-7	6.843189E-3
1.932000E-7	6.757542E-3
1.932500E-7	6.766107E-3
1.933000E-7	6.834624E-3
1.933500E-7	6.843189E-3
1.934000E-7	6.808930E-3
1.934500E-7	6.843189E-3
1.935000E-7	6.920272E-3
1.935500E-7	6.937401E-3
1.936000E-7	6.894578E-3
1.936500E-7	6.894578E-3
1.937000E-7	6.877448E-3
1.937500E-7	6.791801E-3
1.938000E-7	6.706153E-3
1.938500E-7	6.689024E-3
1.939000E-7	6.654765E-3
1.939500E-7	6.577683E-3
1.940000E-7	6.551988E-3
1.940500E-7	6.586247E-3
1.941000E-7	6.629071E-3
1.941500E-7	6.680459E-3
1.942000E-7	6.766107E-3
1.942500E-7	6.860319E-3
1.943000E-7	6.920272E-3
1.943500E-7	6.945966E-3
1.944000E-7	6.928836E-3
1.944500E-7	6.920272E-3
1.945000E-7	6.911707E-3
1.945500E-7	6.860319E-3
1.946000E-7	6.800365E-3
1.946500E-7	6.800365E-3
1.947000E-7	6.834624E-3
1.947500E-7	6.834624E-3
1.948000E-7	6.817495E-3
1.948500E-7	6.800365E-3
1.949000E-7	6.826060E-3
1.949500E-7	6.877448E-3
1.950000E-7	6.894578E-3
1.950500E-7	6.928836E-3
1.951000E-7	7.005919E-3
1.951500E-7	7.074437E-3
1.952000E-7	7.048743E-3
1.952500E-7	7.014484E-3
1.953000E-7	6.963095E-3
1.953500E-7	6.860319E-3
1.954000E-7	6.723283E-3
1.954500E-7	6.603377E-3
1.955000E-7	6.466341E-3
1.955500E-7	6.286482E-3
1.956000E-7	6.158011E-3
1.956500E-7	6.149446E-3
1.957000E-7	6.158011E-3
1.957500E-7	6.192270E-3
1.958000E-7	6.277917E-3
1.958500E-7	6.346435E-3
1.959000E-7	6.449212E-3
1.959500E-7	6.637636E-3
1.960000E-7	6.834624E-3
1.960500E-7	6.988790E-3
1.961000E-7	7.160084E-3
1.961500E-7	7.322814E-3
1.962000E-7	7.391332E-3
1.962500E-7	7.399897E-3
1.963000E-7	7.408461E-3
1.963500E-7	7.348508E-3
1.964000E-7	7.194343E-3
1.964500E-7	7.048743E-3
1.965000E-7	6.860319E-3
1.965500E-7	6.611941E-3
1.966000E-7	6.466341E-3
1.966500E-7	6.414953E-3
1.967000E-7	6.355000E-3
1.967500E-7	6.320741E-3
1.968000E-7	6.380694E-3
1.968500E-7	6.449212E-3
1.969000E-7	6.509165E-3
1.969500E-7	6.594812E-3
1.970000E-7	6.629071E-3
1.970500E-7	6.646200E-3
1.971000E-7	6.774671E-3
1.971500E-7	6.911707E-3
1.972000E-7	6.903142E-3
1.972500E-7	6.860319E-3
1.973000E-7	6.903142E-3
1.973500E-7	6.886013E-3
1.974000E-7	6.817495E-3
1.974500E-7	6.817495E-3
1.975000E-7	6.808930E-3
1.975500E-7	6.697589E-3
1.976000E-7	6.603377E-3
1.976500E-7	6.577683E-3
1.977000E-7	6.492035E-3
1.977500E-7	6.372129E-3
1.978000E-7	6.312176E-3
1.978500E-7	6.243658E-3
1.979000E-7	6.183705E-3
1.979500E-7	6.200834E-3
1.980000E-7	6.217964E-3
1.980500E-7	6.192270E-3
1.981000E-7	6.243658E-3
1.981500E-7	6.337870E-3
1.982000E-7	6.380694E-3
1.982500E-7	6.414953E-3
1.983000E-7	6.440647E-3
1.983500E-7	6.432082E-3
1.984000E-7	6.414953E-3
1.984500E-7	6.423517E-3
1.985000E-7	6.406388E-3
1.985500E-7	6.337870E-3
1.986000E-7	6.260788E-3
1.986500E-7	6.235093E-3
1.987000E-7	6.217964E-3
1.987500E-7	6.192270E-3
1.988000E-7	6.158011E-3
1.988500E-7	6.183705E-3
1.989000E-7	6.269352E-3
1.989500E-7	6.337870E-3
1.990000E-7	6.355000E-3
1.990500E-7	6.380694E-3
1.991000E-7	6.423517E-3
1.991500E-7	6.457776E-3
1.992000E-7	6.500600E-3
1.992500E-7	6.526294E-3
1.993000E-7	6.500600E-3
1.993500E-7	6.449212E-3
1.994000E-7	6.440647E-3
1.994500E-7	6.483470E-3
1.995000E-7	6.526294E-3
1.995500E-7	6.534859E-3
1.996000E-7	6.517729E-3
1.996500E-7	6.534859E-3
1.997000E-7	6.620506E-3
1.997500E-7	6.646200E-3
1.998000E-7	6.637636E-3
1.998500E-7	6.654765E-3
1.999000E-7	6.603377E-3
1.999500E-7	6.457776E-3
2.000000E-7	6.329305E-3
