Study Name	0404W
Sample Name	2024-01-11
Run Name	spot00
Operator	Elena
Date	1/11/2024
Time	16:35
Sign	FIX
Grating Spacing	03.40um
Channel	3
Number Traces	10000
Files in Batch	1
Batch Number	95
dt	50.000001E-12
time stamp (ms)	6:12:14 PM
	
Time	Amplitude
0.000000E+0	3.126120E-3
5.000000E-11	3.108990E-3
1.000000E-10	3.083296E-3
1.500000E-10	3.074731E-3
2.000000E-10	3.066167E-3
2.500000E-10	3.066167E-3
3.000000E-10	3.074731E-3
3.500000E-10	3.040472E-3
4.000000E-10	2.963390E-3
4.500000E-10	2.894872E-3
5.000000E-10	2.843484E-3
5.500000E-10	2.766401E-3
6.000000E-10	2.689319E-3
6.500000E-10	2.620801E-3
7.000000E-10	2.637930E-3
7.500000E-10	2.689319E-3
8.000000E-10	2.697883E-3
8.500000E-10	2.663624E-3
9.000000E-10	2.706448E-3
9.500000E-10	2.800660E-3
1.000000E-9	2.843484E-3
1.050000E-9	2.817790E-3
1.100000E-9	2.834919E-3
1.150000E-9	2.852048E-3
1.200000E-9	2.800660E-3
1.250000E-9	2.715013E-3
1.300000E-9	2.637930E-3
1.350000E-9	2.595107E-3
1.400000E-9	2.577977E-3
1.450000E-9	2.552283E-3
1.500000E-9	2.483765E-3
1.550000E-9	2.415247E-3
1.600000E-9	2.363859E-3
1.650000E-9	2.303906E-3
1.700000E-9	2.321035E-3
1.750000E-9	2.406682E-3
1.800000E-9	2.440941E-3
1.850000E-9	2.440941E-3
1.900000E-9	2.509459E-3
1.950000E-9	2.586542E-3
2.000000E-9	2.586542E-3
2.050000E-9	2.552283E-3
2.100000E-9	2.560848E-3
2.150000E-9	2.595107E-3
2.200000E-9	2.595107E-3
2.250000E-9	2.518024E-3
2.300000E-9	2.423812E-3
2.350000E-9	2.440941E-3
2.400000E-9	2.492330E-3
2.450000E-9	2.458071E-3
2.500000E-9	2.440941E-3
2.550000E-9	2.560848E-3
2.600000E-9	2.663624E-3
2.650000E-9	2.629365E-3
2.700000E-9	2.577977E-3
2.750000E-9	2.620801E-3
2.800000E-9	2.663624E-3
2.850000E-9	2.620801E-3
2.900000E-9	2.612236E-3
2.950000E-9	2.680754E-3
3.000000E-9	2.715013E-3
3.050000E-9	2.706448E-3
3.100000E-9	2.697883E-3
3.150000E-9	2.697883E-3
3.200000E-9	2.672189E-3
3.250000E-9	2.663624E-3
3.300000E-9	2.655060E-3
3.350000E-9	2.612236E-3
3.400000E-9	2.543718E-3
3.450000E-9	2.492330E-3
3.500000E-9	2.440941E-3
3.550000E-9	2.363859E-3
3.600000E-9	2.295341E-3
3.650000E-9	2.184000E-3
3.700000E-9	2.124046E-3
3.750000E-9	2.184000E-3
3.800000E-9	2.235388E-3
3.850000E-9	2.184000E-3
3.900000E-9	2.218258E-3
3.950000E-9	2.389553E-3
4.000000E-9	2.560848E-3
4.050000E-9	2.637930E-3
4.100000E-9	2.740707E-3
4.150000E-9	2.912002E-3
4.200000E-9	3.040472E-3
4.250000E-9	3.117555E-3
4.300000E-9	3.194638E-3
4.350000E-9	3.246026E-3
4.400000E-9	3.220332E-3
4.450000E-9	3.100426E-3
4.500000E-9	2.989084E-3
4.550000E-9	2.912002E-3
4.600000E-9	2.826354E-3
4.650000E-9	2.740707E-3
4.700000E-9	2.646495E-3
4.750000E-9	2.595107E-3
4.800000E-9	2.560848E-3
4.850000E-9	2.535153E-3
4.900000E-9	2.518024E-3
4.950000E-9	2.535153E-3
5.000000E-9	2.543718E-3
5.050000E-9	2.483765E-3
5.100000E-9	2.423812E-3
5.150000E-9	2.389553E-3
5.200000E-9	2.303906E-3
5.250000E-9	2.175435E-3
5.300000E-9	2.124046E-3
5.350000E-9	2.098352E-3
5.400000E-9	2.021270E-3
5.450000E-9	1.987011E-3
5.500000E-9	2.055529E-3
5.550000E-9	2.141176E-3
5.600000E-9	2.201129E-3
5.650000E-9	2.286776E-3
5.700000E-9	2.406682E-3
5.750000E-9	2.518024E-3
5.800000E-9	2.629365E-3
5.850000E-9	2.663624E-3
5.900000E-9	2.672189E-3
5.950000E-9	2.697883E-3
6.000000E-9	2.689319E-3
6.050000E-9	2.629365E-3
6.100000E-9	2.577977E-3
6.150000E-9	2.577977E-3
6.200000E-9	2.586542E-3
6.250000E-9	2.560848E-3
6.300000E-9	2.543718E-3
6.350000E-9	2.560848E-3
6.400000E-9	2.595107E-3
6.450000E-9	2.577977E-3
6.500000E-9	2.552283E-3
6.550000E-9	2.595107E-3
6.600000E-9	2.663624E-3
6.650000E-9	2.663624E-3
6.700000E-9	2.637930E-3
6.750000E-9	2.672189E-3
6.800000E-9	2.715013E-3
6.850000E-9	2.706448E-3
6.900000E-9	2.672189E-3
6.950000E-9	2.689319E-3
7.000000E-9	2.697883E-3
7.050000E-9	2.689319E-3
7.100000E-9	2.689319E-3
7.150000E-9	2.706448E-3
7.200000E-9	2.697883E-3
7.250000E-9	2.689319E-3
7.300000E-9	2.706448E-3
7.350000E-9	2.749272E-3
7.400000E-9	2.766401E-3
7.450000E-9	2.740707E-3
7.500000E-9	2.697883E-3
7.550000E-9	2.697883E-3
7.600000E-9	2.697883E-3
7.650000E-9	2.663624E-3
7.700000E-9	2.672189E-3
7.750000E-9	2.706448E-3
7.800000E-9	2.749272E-3
7.850000E-9	2.792095E-3
7.900000E-9	2.912002E-3
7.950000E-9	3.023343E-3
8.000000E-9	3.057602E-3
8.050000E-9	3.083296E-3
8.100000E-9	3.117555E-3
8.150000E-9	3.117555E-3
8.200000E-9	3.066167E-3
8.250000E-9	2.997649E-3
8.300000E-9	2.946260E-3
8.350000E-9	2.894872E-3
8.400000E-9	2.843484E-3
8.450000E-9	2.757836E-3
8.500000E-9	2.689319E-3
8.550000E-9	2.749272E-3
8.600000E-9	2.817790E-3
8.650000E-9	2.783531E-3
8.700000E-9	2.800660E-3
8.750000E-9	2.920566E-3
8.800000E-9	2.989084E-3
8.850000E-9	2.971955E-3
8.900000E-9	2.997649E-3
8.950000E-9	3.057602E-3
9.000000E-9	3.057602E-3
9.050000E-9	3.040472E-3
9.100000E-9	3.066167E-3
9.150000E-9	3.083296E-3
9.200000E-9	3.066167E-3
9.250000E-9	3.074731E-3
9.300000E-9	3.108990E-3
9.350000E-9	3.134685E-3
9.400000E-9	3.108990E-3
9.450000E-9	3.066167E-3
9.500000E-9	3.066167E-3
9.550000E-9	3.126120E-3
9.600000E-9	3.143249E-3
9.650000E-9	3.100426E-3
9.700000E-9	3.074731E-3
9.750000E-9	3.126120E-3
9.800000E-9	3.151814E-3
9.850000E-9	3.083296E-3
9.900000E-9	3.049037E-3
9.950000E-9	3.143249E-3
1.000000E-8	3.220332E-3
1.005000E-8	3.186073E-3
1.010000E-8	3.160379E-3
1.015000E-8	3.177508E-3
1.020000E-8	3.117555E-3
1.025000E-8	2.997649E-3
1.030000E-8	2.920566E-3
1.035000E-8	2.869178E-3
1.040000E-8	2.774966E-3
1.045000E-8	2.715013E-3
1.050000E-8	2.672189E-3
1.055000E-8	2.646495E-3
1.060000E-8	2.672189E-3
1.065000E-8	2.715013E-3
1.070000E-8	2.749272E-3
1.075000E-8	2.817790E-3
1.080000E-8	2.937696E-3
1.085000E-8	2.997649E-3
1.090000E-8	3.014778E-3
1.095000E-8	3.100426E-3
1.100000E-8	3.143249E-3
1.105000E-8	3.066167E-3
1.110000E-8	3.014778E-3
1.115000E-8	3.049037E-3
1.120000E-8	3.006214E-3
1.125000E-8	2.886307E-3
1.130000E-8	2.860613E-3
1.135000E-8	2.937696E-3
1.140000E-8	3.006214E-3
1.145000E-8	3.066167E-3
1.150000E-8	3.168943E-3
1.155000E-8	3.305979E-3
1.160000E-8	3.391626E-3
1.165000E-8	3.374497E-3
1.170000E-8	3.331673E-3
1.175000E-8	3.314544E-3
1.180000E-8	3.228897E-3
1.185000E-8	3.023343E-3
1.190000E-8	2.826354E-3
1.195000E-8	2.706448E-3
1.200000E-8	2.595107E-3
1.205000E-8	2.518024E-3
1.210000E-8	2.680754E-3
1.215000E-8	3.168943E-3
1.220000E-8	3.982593E-3
1.225000E-8	5.284432E-3
1.230000E-8	7.280014E-3
1.235000E-8	1.013207E-2
1.240000E-8	1.398620E-2
1.245000E-8	1.903082E-2
1.250000E-8	2.539442E-2
1.255000E-8	3.317976E-2
1.260000E-8	4.245536E-2
1.265000E-8	5.314414E-2
1.270000E-8	6.506625E-2
1.275000E-8	7.805038E-2
1.280000E-8	9.171968E-2
1.285000E-8	1.055774E-1
1.290000E-8	1.192296E-1
1.295000E-8	1.323850E-1
1.300000E-8	1.446497E-1
1.305000E-8	1.557496E-1
1.310000E-8	1.655990E-1
1.315000E-8	1.741895E-1
1.320000E-8	1.814524E-1
1.325000E-8	1.874220E-1
1.330000E-8	1.923553E-1
1.335000E-8	1.965092E-1
1.340000E-8	1.999522E-1
1.345000E-8	2.027186E-1
1.350000E-8	2.049625E-1
1.355000E-8	2.067440E-1
1.360000E-8	2.079602E-1
1.365000E-8	2.085597E-1
1.370000E-8	2.084741E-1
1.375000E-8	2.074377E-1
1.380000E-8	2.053223E-1
1.385000E-8	2.021876E-1
1.390000E-8	1.980422E-1
1.395000E-8	1.929120E-1
1.400000E-8	1.869509E-1
1.405000E-8	1.803989E-1
1.410000E-8	1.734957E-1
1.415000E-8	1.665497E-1
1.420000E-8	1.598521E-1
1.425000E-8	1.536598E-1
1.430000E-8	1.482041E-1
1.435000E-8	1.436905E-1
1.440000E-8	1.401190E-1
1.445000E-8	1.374382E-1
1.450000E-8	1.356225E-1
1.455000E-8	1.346718E-1
1.460000E-8	1.344748E-1
1.465000E-8	1.349031E-1
1.470000E-8	1.358280E-1
1.475000E-8	1.372070E-1
1.480000E-8	1.389799E-1
1.485000E-8	1.410611E-1
1.490000E-8	1.433993E-1
1.495000E-8	1.460286E-1
1.500000E-8	1.489150E-1
1.505000E-8	1.519811E-1
1.510000E-8	1.551586E-1
1.515000E-8	1.584304E-1
1.520000E-8	1.616079E-1
1.525000E-8	1.644856E-1
1.530000E-8	1.669780E-1
1.535000E-8	1.690421E-1
1.540000E-8	1.705238E-1
1.545000E-8	1.712346E-1
1.550000E-8	1.711490E-1
1.555000E-8	1.702754E-1
1.560000E-8	1.686053E-1
1.565000E-8	1.661558E-1
1.570000E-8	1.630382E-1
1.575000E-8	1.593554E-1
1.580000E-8	1.552871E-1
1.585000E-8	1.509876E-1
1.590000E-8	1.465768E-1
1.595000E-8	1.422173E-1
1.600000E-8	1.380377E-1
1.605000E-8	1.340551E-1
1.610000E-8	1.304580E-1
1.615000E-8	1.274260E-1
1.620000E-8	1.248481E-1
1.625000E-8	1.226212E-1
1.630000E-8	1.209511E-1
1.635000E-8	1.199490E-1
1.640000E-8	1.194523E-1
1.645000E-8	1.194266E-1
1.650000E-8	1.200347E-1
1.655000E-8	1.212337E-1
1.660000E-8	1.228782E-1
1.665000E-8	1.249594E-1
1.670000E-8	1.274689E-1
1.675000E-8	1.303295E-1
1.680000E-8	1.334385E-1
1.685000E-8	1.365989E-1
1.690000E-8	1.397164E-1
1.695000E-8	1.427912E-1
1.700000E-8	1.456432E-1
1.705000E-8	1.480670E-1
1.710000E-8	1.500798E-1
1.715000E-8	1.516471E-1
1.720000E-8	1.526235E-1
1.725000E-8	1.529746E-1
1.730000E-8	1.528633E-1
1.735000E-8	1.522295E-1
1.740000E-8	1.509448E-1
1.745000E-8	1.491119E-1
1.750000E-8	1.468937E-1
1.755000E-8	1.443414E-1
1.760000E-8	1.413951E-1
1.765000E-8	1.381491E-1
1.770000E-8	1.346804E-1
1.775000E-8	1.310917E-1
1.780000E-8	1.274260E-1
1.785000E-8	1.238203E-1
1.790000E-8	1.203344E-1
1.795000E-8	1.171141E-1
1.800000E-8	1.142021E-1
1.805000E-8	1.116070E-1
1.810000E-8	1.094144E-1
1.815000E-8	1.077357E-1
1.820000E-8	1.065881E-1
1.825000E-8	1.059457E-1
1.830000E-8	1.059029E-1
1.835000E-8	1.065024E-1
1.840000E-8	1.076929E-1
1.845000E-8	1.094315E-1
1.850000E-8	1.117868E-1
1.855000E-8	1.147074E-1
1.860000E-8	1.180562E-1
1.865000E-8	1.216363E-1
1.870000E-8	1.254133E-1
1.875000E-8	1.293531E-1
1.880000E-8	1.332244E-1
1.885000E-8	1.368044E-1
1.890000E-8	1.400333E-1
1.895000E-8	1.428511E-1
1.900000E-8	1.450180E-1
1.905000E-8	1.463798E-1
1.910000E-8	1.470050E-1
1.915000E-8	1.468080E-1
1.920000E-8	1.457032E-1
1.925000E-8	1.437675E-1
1.930000E-8	1.411382E-1
1.935000E-8	1.378322E-1
1.940000E-8	1.338753E-1
1.945000E-8	1.294302E-1
1.950000E-8	1.247110E-1
1.955000E-8	1.198891E-1
1.960000E-8	1.150586E-1
1.965000E-8	1.103223E-1
1.970000E-8	1.059371E-1
1.975000E-8	1.020830E-1
1.980000E-8	9.879415E-2
1.985000E-8	9.611339E-2
1.990000E-8	9.425484E-2
1.995000E-8	9.325277E-2
2.000000E-8	9.297870E-2
2.005000E-8	9.348402E-2
2.010000E-8	9.479442E-2
2.015000E-8	9.679000E-2
2.020000E-8	9.934229E-2
2.025000E-8	1.024342E-1
2.030000E-8	1.060142E-1
2.035000E-8	1.099711E-1
2.040000E-8	1.141250E-1
2.045000E-8	1.183046E-1
2.050000E-8	1.224499E-1
2.055000E-8	1.265610E-1
2.060000E-8	1.304580E-1
2.065000E-8	1.338838E-1
2.070000E-8	1.367702E-1
2.075000E-8	1.390141E-1
2.080000E-8	1.404444E-1
2.085000E-8	1.409241E-1
2.090000E-8	1.405301E-1
2.095000E-8	1.392454E-1
2.100000E-8	1.369415E-1
2.105000E-8	1.336355E-1
2.110000E-8	1.295415E-1
2.115000E-8	1.248309E-1
2.120000E-8	1.196236E-1
2.125000E-8	1.141678E-1
2.130000E-8	1.087035E-1
2.135000E-8	1.034534E-1
2.140000E-8	9.855434E-2
2.145000E-8	9.421202E-2
2.150000E-8	9.065766E-2
2.155000E-8	8.799403E-2
2.160000E-8	8.617830E-2
2.165000E-8	8.521049E-2
2.170000E-8	8.513341E-2
2.175000E-8	8.590423E-2
2.180000E-8	8.729172E-2
2.185000E-8	8.919309E-2
2.190000E-8	9.164260E-2
2.195000E-8	9.455461E-2
2.200000E-8	9.771500E-2
2.205000E-8	1.009953E-1
2.210000E-8	1.044040E-1
2.215000E-8	1.078985E-1
2.220000E-8	1.113929E-1
2.225000E-8	1.147588E-1
2.230000E-8	1.179791E-1
2.235000E-8	1.209854E-1
2.240000E-8	1.237004E-1
2.245000E-8	1.260557E-1
2.250000E-8	1.279314E-1
2.255000E-8	1.291561E-1
2.260000E-8	1.296357E-1
2.265000E-8	1.294131E-1
2.270000E-8	1.284795E-1
2.275000E-8	1.267580E-1
2.280000E-8	1.242400E-1
2.285000E-8	1.210539E-1
2.290000E-8	1.173025E-1
2.295000E-8	1.131315E-1
2.300000E-8	1.086350E-1
2.305000E-8	1.039587E-1
2.310000E-8	9.930804E-2
2.315000E-8	9.499141E-2
2.320000E-8	9.115441E-2
2.325000E-8	8.773709E-2
2.330000E-8	8.494498E-2
2.335000E-8	8.298366E-2
2.340000E-8	8.177603E-2
2.345000E-8	8.121076E-2
2.350000E-8	8.141631E-2
2.355000E-8	8.240982E-2
2.360000E-8	8.396004E-2
2.365000E-8	8.597275E-2
2.370000E-8	8.848222E-2
2.375000E-8	9.135140E-2
2.380000E-8	9.443470E-2
2.385000E-8	9.762078E-2
2.390000E-8	1.008154E-1
2.395000E-8	1.039587E-1
2.400000E-8	1.070249E-1
2.405000E-8	1.098683E-1
2.410000E-8	1.123778E-1
2.415000E-8	1.145961E-1
2.420000E-8	1.164289E-1
2.425000E-8	1.177650E-1
2.430000E-8	1.185787E-1
2.435000E-8	1.188784E-1
2.440000E-8	1.185359E-1
2.445000E-8	1.175595E-1
2.450000E-8	1.161120E-1
2.455000E-8	1.142021E-1
2.460000E-8	1.116926E-1
2.465000E-8	1.087121E-1
2.470000E-8	1.055860E-1
2.475000E-8	1.023399E-1
2.480000E-8	9.893975E-2
2.485000E-8	9.550530E-2
2.490000E-8	9.222500E-2
2.495000E-8	8.921878E-2
2.500000E-8	8.651233E-2
2.505000E-8	8.419985E-2
2.510000E-8	8.230705E-2
2.515000E-8	8.090243E-2
2.520000E-8	7.990892E-2
2.525000E-8	7.930083E-2
2.530000E-8	7.912953E-2
2.535000E-8	7.942073E-2
2.540000E-8	8.008022E-2
2.545000E-8	8.109086E-2
2.550000E-8	8.252116E-2
2.555000E-8	8.430263E-2
2.560000E-8	8.628965E-2
2.565000E-8	8.849078E-2
2.570000E-8	9.098312E-2
2.575000E-8	9.374096E-2
2.580000E-8	9.662727E-2
2.585000E-8	9.953928E-2
2.590000E-8	1.024599E-1
2.595000E-8	1.053462E-1
2.600000E-8	1.080355E-1
2.605000E-8	1.103822E-1
2.610000E-8	1.123179E-1
2.615000E-8	1.137396E-1
2.620000E-8	1.144676E-1
2.625000E-8	1.144933E-1
2.630000E-8	1.138424E-1
2.635000E-8	1.124720E-1
2.640000E-8	1.103308E-1
2.645000E-8	1.074874E-1
2.650000E-8	1.041043E-1
2.655000E-8	1.003615E-1
2.660000E-8	9.632751E-2
2.665000E-8	9.207940E-2
2.670000E-8	8.786556E-2
2.675000E-8	8.392578E-2
2.680000E-8	8.033716E-2
2.685000E-8	7.715964E-2
2.690000E-8	7.454740E-2
2.695000E-8	7.257751E-2
2.700000E-8	7.117290E-2
2.705000E-8	7.031643E-2
2.710000E-8	7.008518E-2
2.715000E-8	7.049628E-2
2.720000E-8	7.144697E-2
2.725000E-8	7.285159E-2
2.730000E-8	7.467587E-2
2.735000E-8	7.693696E-2
2.740000E-8	7.955777E-2
2.745000E-8	8.242695E-2
2.750000E-8	8.557021E-2
2.755000E-8	8.900467E-2
2.760000E-8	9.264468E-2
2.765000E-8	9.631038E-2
2.770000E-8	9.990757E-2
2.775000E-8	1.033934E-1
2.780000E-8	1.064767E-1
2.785000E-8	1.089519E-1
2.790000E-8	1.108190E-1
2.795000E-8	1.119753E-1
2.800000E-8	1.122236E-1
2.805000E-8	1.114956E-1
2.810000E-8	1.099026E-1
2.815000E-8	1.074445E-1
2.820000E-8	1.041128E-1
2.825000E-8	1.001302E-1
2.830000E-8	9.577937E-2
2.835000E-8	9.121437E-2
2.840000E-8	8.658941E-2
2.845000E-8	8.207580E-2
2.850000E-8	7.793047E-2
2.855000E-8	7.432472E-2
2.860000E-8	7.125855E-2
2.865000E-8	6.874051E-2
2.870000E-8	6.689910E-2
2.875000E-8	6.576855E-2
2.880000E-8	6.521185E-2
2.885000E-8	6.519472E-2
2.890000E-8	6.582851E-2
2.895000E-8	6.700187E-2
2.900000E-8	6.852640E-2
2.905000E-8	7.037638E-2
2.910000E-8	7.265460E-2
2.915000E-8	7.530966E-2
2.920000E-8	7.819598E-2
2.925000E-8	8.127928E-2
2.930000E-8	8.455101E-2
2.935000E-8	8.794264E-2
2.940000E-8	9.133427E-2
2.945000E-8	9.459743E-2
2.950000E-8	9.763791E-2
2.955000E-8	1.004043E-1
2.960000E-8	1.027425E-1
2.965000E-8	1.044640E-1
2.970000E-8	1.054404E-1
2.975000E-8	1.056973E-1
2.980000E-8	1.051663E-1
2.985000E-8	1.037531E-1
2.990000E-8	1.015349E-1
2.995000E-8	9.869137E-2
3.000000E-8	9.522266E-2
3.005000E-8	9.115441E-2
3.010000E-8	8.675214E-2
3.015000E-8	8.229848E-2
3.020000E-8	7.792191E-2
3.025000E-8	7.365667E-2
3.030000E-8	6.971689E-2
3.035000E-8	6.634239E-2
3.040000E-8	6.357598E-2
3.045000E-8	6.143480E-2
3.050000E-8	6.003875E-2
3.055000E-8	5.948204E-2
3.060000E-8	5.966190E-2
3.065000E-8	6.051837E-2
3.070000E-8	6.208572E-2
3.075000E-8	6.428686E-2
3.080000E-8	6.693336E-2
3.085000E-8	6.994814E-2
3.090000E-8	7.326269E-2
3.095000E-8	7.674854E-2
3.100000E-8	8.025151E-2
3.105000E-8	8.364314E-2
3.110000E-8	8.683779E-2
3.115000E-8	8.974980E-2
3.120000E-8	9.232778E-2
3.125000E-8	9.444327E-2
3.130000E-8	9.607913E-2
3.135000E-8	9.727819E-2
3.140000E-8	9.792055E-2
3.145000E-8	9.793768E-2
3.150000E-8	9.742379E-2
3.155000E-8	9.649024E-2
3.160000E-8	9.497428E-2
3.165000E-8	9.289305E-2
3.170000E-8	9.047780E-2
3.175000E-8	8.779704E-2
3.180000E-8	8.475656E-2
3.185000E-8	8.147627E-2
3.190000E-8	7.820454E-2
3.195000E-8	7.506129E-2
3.200000E-8	7.200368E-2
3.205000E-8	6.915162E-2
3.210000E-8	6.663359E-2
3.215000E-8	6.448384E-2
3.220000E-8	6.272807E-2
3.225000E-8	6.144336E-2
3.230000E-8	6.067254E-2
3.235000E-8	6.037277E-2
3.240000E-8	6.049268E-2
3.245000E-8	6.103226E-2
3.250000E-8	6.199151E-2
3.255000E-8	6.340469E-2
3.260000E-8	6.515189E-2
3.265000E-8	6.711322E-2
3.270000E-8	6.941713E-2
3.275000E-8	7.204650E-2
3.280000E-8	7.472726E-2
3.285000E-8	7.737376E-2
3.290000E-8	8.013161E-2
3.295000E-8	8.287232E-2
3.300000E-8	8.528757E-2
3.305000E-8	8.738593E-2
3.310000E-8	8.921022E-2
3.315000E-8	9.062340E-2
3.320000E-8	9.151413E-2
3.325000E-8	9.190811E-2
3.330000E-8	9.183103E-2
3.335000E-8	9.124006E-2
3.340000E-8	9.014377E-2
3.345000E-8	8.858499E-2
3.350000E-8	8.666649E-2
3.355000E-8	8.447392E-2
3.360000E-8	8.196446E-2
3.365000E-8	7.917236E-2
3.370000E-8	7.625178E-2
3.375000E-8	7.327982E-2
3.380000E-8	7.031643E-2
3.385000E-8	6.743868E-2
3.390000E-8	6.471509E-2
3.395000E-8	6.220563E-2
3.400000E-8	6.003018E-2
3.405000E-8	5.824872E-2
3.410000E-8	5.690406E-2
3.415000E-8	5.608184E-2
3.420000E-8	5.579921E-2
3.425000E-8	5.600476E-2
3.430000E-8	5.674989E-2
3.435000E-8	5.805173E-2
3.440000E-8	5.977324E-2
3.445000E-8	6.184591E-2
3.450000E-8	6.428686E-2
3.455000E-8	6.695905E-2
3.460000E-8	6.969976E-2
3.465000E-8	7.250900E-2
3.470000E-8	7.536962E-2
3.475000E-8	7.815315E-2
3.480000E-8	8.073114E-2
3.485000E-8	8.306931E-2
3.490000E-8	8.511628E-2
3.495000E-8	8.682066E-2
3.500000E-8	8.812250E-2
3.505000E-8	8.894471E-2
3.510000E-8	8.926161E-2
3.515000E-8	8.906462E-2
3.520000E-8	8.831092E-2
3.525000E-8	8.691487E-2
3.530000E-8	8.491929E-2
3.535000E-8	8.244408E-2
3.540000E-8	7.951494E-2
3.545000E-8	7.614901E-2
3.550000E-8	7.255182E-2
3.555000E-8	6.888612E-2
3.560000E-8	6.524610E-2
3.565000E-8	6.171744E-2
3.570000E-8	5.854849E-2
3.575000E-8	5.586773E-2
3.580000E-8	5.372654E-2
3.585000E-8	5.213350E-2
3.590000E-8	5.121708E-2
3.595000E-8	5.102009E-2
3.600000E-8	5.149115E-2
3.605000E-8	5.248466E-2
3.610000E-8	5.394923E-2
3.615000E-8	5.587629E-2
3.620000E-8	5.815451E-2
3.625000E-8	6.062115E-2
3.630000E-8	6.326765E-2
3.635000E-8	6.606832E-2
3.640000E-8	6.889468E-2
3.645000E-8	7.166109E-2
3.650000E-8	7.441893E-2
3.655000E-8	7.718534E-2
3.660000E-8	7.980615E-2
3.665000E-8	8.211862E-2
3.670000E-8	8.413133E-2
3.675000E-8	8.577576E-2
3.680000E-8	8.696626E-2
3.685000E-8	8.758292E-2
3.690000E-8	8.757436E-2
3.695000E-8	8.688061E-2
3.700000E-8	8.543317E-2
3.705000E-8	8.325773E-2
3.710000E-8	8.054271E-2
3.715000E-8	7.734807E-2
3.720000E-8	7.363954E-2
3.725000E-8	6.963125E-2
3.730000E-8	6.561439E-2
3.735000E-8	6.167461E-2
3.740000E-8	5.789757E-2
3.745000E-8	5.453163E-2
3.750000E-8	5.171383E-2
3.755000E-8	4.952126E-2
3.760000E-8	4.801387E-2
3.765000E-8	4.722591E-2
3.770000E-8	4.714883E-2
3.775000E-8	4.775693E-2
3.780000E-8	4.899025E-2
3.785000E-8	5.074602E-2
3.790000E-8	5.293002E-2
3.795000E-8	5.549088E-2
3.800000E-8	5.833437E-2
3.805000E-8	6.128920E-2
3.810000E-8	6.429542E-2
3.815000E-8	6.730164E-2
3.820000E-8	7.020508E-2
3.825000E-8	7.292867E-2
3.830000E-8	7.542957E-2
3.835000E-8	7.766496E-2
3.840000E-8	7.955777E-2
3.845000E-8	8.099664E-2
3.850000E-8	8.202441E-2
3.855000E-8	8.263251E-2
3.860000E-8	8.269246E-2
3.865000E-8	8.212719E-2
3.870000E-8	8.103090E-2
3.875000E-8	7.948069E-2
3.880000E-8	7.741659E-2
3.885000E-8	7.487286E-2
3.890000E-8	7.205507E-2
3.895000E-8	6.908310E-2
3.900000E-8	6.599124E-2
3.905000E-8	6.289937E-2
3.910000E-8	5.997880E-2
3.915000E-8	5.728947E-2
3.920000E-8	5.488278E-2
3.925000E-8	5.282725E-2
3.930000E-8	5.122564E-2
3.935000E-8	5.008653E-2
3.940000E-8	4.940992E-2
3.945000E-8	4.910159E-2
3.950000E-8	4.920437E-2
3.955000E-8	4.976964E-2
3.960000E-8	5.071176E-2
3.965000E-8	5.192795E-2
3.970000E-8	5.346104E-2
3.975000E-8	5.535384E-2
3.980000E-8	5.739225E-2
3.985000E-8	5.953343E-2
3.990000E-8	6.187160E-2
3.995000E-8	6.432968E-2
4.000000E-8	6.670211E-2
4.005000E-8	6.894607E-2
4.010000E-8	7.111294E-2
4.015000E-8	7.314279E-2
4.020000E-8	7.486430E-2
4.025000E-8	7.617470E-2
4.030000E-8	7.707400E-2
4.035000E-8	7.760501E-2
4.040000E-8	7.771635E-2
4.045000E-8	7.731381E-2
4.050000E-8	7.643164E-2
4.055000E-8	7.514693E-2
4.060000E-8	7.344255E-2
4.065000E-8	7.130137E-2
4.070000E-8	6.890324E-2
4.075000E-8	6.638521E-2
4.080000E-8	6.372158E-2
4.085000E-8	6.098943E-2
4.090000E-8	5.836006E-2
4.095000E-8	5.591055E-2
4.100000E-8	5.359807E-2
4.105000E-8	5.156823E-2
4.110000E-8	4.998376E-2
4.115000E-8	4.880182E-2
4.120000E-8	4.791109E-2
4.125000E-8	4.738864E-2
4.130000E-8	4.733725E-2
4.135000E-8	4.771410E-2
4.140000E-8	4.840785E-2
4.145000E-8	4.941848E-2
4.150000E-8	5.080597E-2
4.155000E-8	5.252748E-2
4.160000E-8	5.445455E-2
4.165000E-8	5.652721E-2
4.170000E-8	5.877973E-2
4.175000E-8	6.115216E-2
4.180000E-8	6.350746E-2
4.185000E-8	6.580281E-2
4.190000E-8	6.804677E-2
4.195000E-8	7.014513E-2
4.200000E-8	7.196085E-2
4.205000E-8	7.340829E-2
4.210000E-8	7.450458E-2
4.215000E-8	7.521545E-2
4.220000E-8	7.539531E-2
4.225000E-8	7.497564E-2
4.230000E-8	7.401639E-2
4.235000E-8	7.263747E-2
4.240000E-8	7.082174E-2
4.245000E-8	6.854353E-2
4.250000E-8	6.598267E-2
4.255000E-8	6.328478E-2
4.260000E-8	6.045842E-2
4.265000E-8	5.759780E-2
4.270000E-8	5.487422E-2
4.275000E-8	5.238188E-2
4.280000E-8	5.010366E-2
4.285000E-8	4.813377E-2
4.290000E-8	4.658356E-2
4.295000E-8	4.546158E-2
4.300000E-8	4.469932E-2
4.305000E-8	4.427965E-2
4.310000E-8	4.426252E-2
4.315000E-8	4.469075E-2
4.320000E-8	4.552153E-2
4.325000E-8	4.672916E-2
4.330000E-8	4.824512E-2
4.335000E-8	5.004371E-2
4.340000E-8	5.212494E-2
4.345000E-8	5.444598E-2
4.350000E-8	5.691262E-2
4.355000E-8	5.940496E-2
4.360000E-8	6.188873E-2
4.365000E-8	6.428686E-2
4.370000E-8	6.661646E-2
4.375000E-8	6.875764E-2
4.380000E-8	7.050485E-2
4.385000E-8	7.182382E-2
4.390000E-8	7.283446E-2
4.395000E-8	7.347681E-2
4.400000E-8	7.351107E-2
4.405000E-8	7.298862E-2
4.410000E-8	7.204650E-2
4.415000E-8	7.062476E-2
4.420000E-8	6.868056E-2
4.425000E-8	6.629957E-2
4.430000E-8	6.355885E-2
4.435000E-8	6.050124E-2
4.440000E-8	5.727234E-2
4.445000E-8	5.397492E-2
4.450000E-8	5.076315E-2
4.455000E-8	4.782544E-2
4.460000E-8	4.517894E-2
4.465000E-8	4.288360E-2
4.470000E-8	4.113639E-2
4.475000E-8	4.006580E-2
4.480000E-8	3.958617E-2
4.485000E-8	3.967182E-2
4.490000E-8	4.043408E-2
4.495000E-8	4.184726E-2
4.500000E-8	4.372294E-2
4.505000E-8	4.592407E-2
4.510000E-8	4.839928E-2
4.515000E-8	5.108004E-2
4.520000E-8	5.382932E-2
4.525000E-8	5.649295E-2
4.530000E-8	5.903668E-2
4.535000E-8	6.147762E-2
4.540000E-8	6.367019E-2
4.545000E-8	6.548592E-2
4.550000E-8	6.697618E-2
4.555000E-8	6.817524E-2
4.560000E-8	6.903172E-2
4.565000E-8	6.949421E-2
4.570000E-8	6.956273E-2
4.575000E-8	6.925440E-2
4.580000E-8	6.856066E-2
4.585000E-8	6.749006E-2
4.590000E-8	6.601693E-2
4.595000E-8	6.418408E-2
4.600000E-8	6.208572E-2
4.605000E-8	5.978181E-2
4.610000E-8	5.731517E-2
4.615000E-8	5.476288E-2
4.620000E-8	5.219346E-2
4.625000E-8	4.970969E-2
4.630000E-8	4.741434E-2
4.635000E-8	4.540163E-2
4.640000E-8	4.368868E-2
4.645000E-8	4.229263E-2
4.650000E-8	4.133338E-2
4.655000E-8	4.084519E-2
4.660000E-8	4.081093E-2
4.665000E-8	4.117921E-2
4.670000E-8	4.200143E-2
4.675000E-8	4.319193E-2
4.680000E-8	4.470788E-2
4.685000E-8	4.652361E-2
4.690000E-8	4.859627E-2
4.695000E-8	5.084023E-2
4.700000E-8	5.313558E-2
4.705000E-8	5.543949E-2
4.710000E-8	5.772627E-2
4.715000E-8	5.991884E-2
4.720000E-8	6.183734E-2
4.725000E-8	6.337043E-2
4.730000E-8	6.461231E-2
4.735000E-8	6.558869E-2
4.740000E-8	6.612827E-2
4.745000E-8	6.617966E-2
4.750000E-8	6.592272E-2
4.755000E-8	6.540027E-2
4.760000E-8	6.451810E-2
4.765000E-8	6.331904E-2
4.770000E-8	6.190586E-2
4.775000E-8	6.030426E-2
4.780000E-8	5.850566E-2
4.785000E-8	5.666425E-2
4.790000E-8	5.483139E-2
4.795000E-8	5.294715E-2
4.800000E-8	5.098583E-2
4.805000E-8	4.907590E-2
4.810000E-8	4.733725E-2
4.815000E-8	4.574422E-2
4.820000E-8	4.427965E-2
4.825000E-8	4.300350E-2
4.830000E-8	4.204425E-2
4.835000E-8	4.144472E-2
4.840000E-8	4.118778E-2
4.845000E-8	4.129056E-2
4.850000E-8	4.178731E-2
4.855000E-8	4.270374E-2
4.860000E-8	4.393706E-2
4.865000E-8	4.541019E-2
4.870000E-8	4.713170E-2
4.875000E-8	4.905020E-2
4.880000E-8	5.101152E-2
4.885000E-8	5.293002E-2
4.890000E-8	5.484852E-2
4.895000E-8	5.666425E-2
4.900000E-8	5.821446E-2
4.905000E-8	5.949917E-2
4.910000E-8	6.054407E-2
4.915000E-8	6.132346E-2
4.920000E-8	6.179452E-2
4.925000E-8	6.194012E-2
4.930000E-8	6.178595E-2
4.935000E-8	6.140911E-2
4.940000E-8	6.082670E-2
4.945000E-8	5.996167E-2
4.950000E-8	5.881399E-2
4.955000E-8	5.747790E-2
4.960000E-8	5.597050E-2
4.965000E-8	5.427469E-2
4.970000E-8	5.245040E-2
4.975000E-8	5.056616E-2
4.980000E-8	4.862196E-2
4.985000E-8	4.663495E-2
4.990000E-8	4.476784E-2
4.995000E-8	4.312341E-2
5.000000E-8	4.168453E-2
5.005000E-8	4.047691E-2
5.010000E-8	3.968039E-2
5.015000E-8	3.928641E-2
5.020000E-8	3.916650E-2
5.025000E-8	3.933780E-2
5.030000E-8	3.994589E-2
5.035000E-8	4.092227E-2
5.040000E-8	4.208708E-2
5.045000E-8	4.344030E-2
5.050000E-8	4.507617E-2
5.055000E-8	4.684907E-2
5.060000E-8	4.857914E-2
5.065000E-8	5.031778E-2
5.070000E-8	5.215063E-2
5.075000E-8	5.396636E-2
5.080000E-8	5.563648E-2
5.085000E-8	5.716100E-2
5.090000E-8	5.860844E-2
5.095000E-8	5.990171E-2
5.100000E-8	6.087809E-2
5.105000E-8	6.146906E-2
5.110000E-8	6.175170E-2
5.115000E-8	6.172600E-2
5.120000E-8	6.125494E-2
5.125000E-8	6.025287E-2
5.130000E-8	5.885682E-2
5.135000E-8	5.716956E-2
5.140000E-8	5.511403E-2
5.145000E-8	5.269878E-2
5.150000E-8	5.014649E-2
5.155000E-8	4.754281E-2
5.160000E-8	4.493057E-2
5.165000E-8	4.240397E-2
5.170000E-8	4.018571E-2
5.175000E-8	3.834429E-2
5.180000E-8	3.687972E-2
5.185000E-8	3.586908E-2
5.190000E-8	3.535520E-2
5.195000E-8	3.534663E-2
5.200000E-8	3.577487E-2
5.205000E-8	3.662278E-2
5.210000E-8	3.787323E-2
5.215000E-8	3.945770E-2
5.220000E-8	4.120491E-2
5.225000E-8	4.310628E-2
5.230000E-8	4.519607E-2
5.235000E-8	4.735438E-2
5.240000E-8	4.940992E-2
5.245000E-8	5.138837E-2
5.250000E-8	5.331544E-2
5.255000E-8	5.513116E-2
5.260000E-8	5.666425E-2
5.265000E-8	5.794039E-2
5.270000E-8	5.901098E-2
5.275000E-8	5.982463E-2
5.280000E-8	6.020148E-2
5.285000E-8	6.012440E-2
5.290000E-8	5.967903E-2
5.295000E-8	5.889964E-2
5.300000E-8	5.771771E-2
5.305000E-8	5.615036E-2
5.310000E-8	5.431751E-2
5.315000E-8	5.228767E-2
5.320000E-8	5.003514E-2
5.325000E-8	4.767128E-2
5.330000E-8	4.535024E-2
5.335000E-8	4.317480E-2
5.340000E-8	4.113639E-2
5.345000E-8	3.932923E-2
5.350000E-8	3.784753E-2
5.355000E-8	3.673412E-2
5.360000E-8	3.594616E-2
5.365000E-8	3.549223E-2
5.370000E-8	3.543228E-2
5.375000E-8	3.574918E-2
5.380000E-8	3.638297E-2
5.385000E-8	3.731652E-2
5.390000E-8	3.855841E-2
5.395000E-8	4.002298E-2
5.400000E-8	4.159889E-2
5.405000E-8	4.329470E-2
5.410000E-8	4.507617E-2
5.415000E-8	4.685763E-2
5.420000E-8	4.857914E-2
5.425000E-8	5.023213E-2
5.430000E-8	5.179091E-2
5.435000E-8	5.318697E-2
5.440000E-8	5.433464E-2
5.445000E-8	5.518255E-2
5.450000E-8	5.575638E-2
5.455000E-8	5.609041E-2
5.460000E-8	5.614180E-2
5.465000E-8	5.585060E-2
5.470000E-8	5.525963E-2
5.475000E-8	5.442029E-2
5.480000E-8	5.332400E-2
5.485000E-8	5.195364E-2
5.490000E-8	5.038630E-2
5.495000E-8	4.867335E-2
5.500000E-8	4.687476E-2
5.505000E-8	4.504191E-2
5.510000E-8	4.326044E-2
5.515000E-8	4.155606E-2
5.520000E-8	3.998872E-2
5.525000E-8	3.860123E-2
5.530000E-8	3.746212E-2
5.535000E-8	3.663134E-2
5.540000E-8	3.608320E-2
5.545000E-8	3.575774E-2
5.550000E-8	3.568922E-2
5.555000E-8	3.599755E-2
5.560000E-8	3.661421E-2
5.565000E-8	3.742786E-2
5.570000E-8	3.841281E-2
5.575000E-8	3.959474E-2
5.580000E-8	4.090514E-2
5.585000E-8	4.224124E-2
5.590000E-8	4.363729E-2
5.595000E-8	4.511899E-2
5.600000E-8	4.653217E-2
5.605000E-8	4.781688E-2
5.610000E-8	4.904164E-2
5.615000E-8	5.024070E-2
5.620000E-8	5.120851E-2
5.625000E-8	5.184230E-2
5.630000E-8	5.230480E-2
5.635000E-8	5.263882E-2
5.640000E-8	5.266452E-2
5.645000E-8	5.230480E-2
5.650000E-8	5.166244E-2
5.655000E-8	5.083166E-2
5.660000E-8	4.982103E-2
5.665000E-8	4.860484E-2
5.670000E-8	4.724304E-2
5.675000E-8	4.579560E-2
5.680000E-8	4.430534E-2
5.685000E-8	4.280651E-2
5.690000E-8	4.135907E-2
5.695000E-8	4.005723E-2
5.700000E-8	3.888387E-2
5.705000E-8	3.782184E-2
5.710000E-8	3.696537E-2
5.715000E-8	3.634871E-2
5.720000E-8	3.586908E-2
5.725000E-8	3.551793E-2
5.730000E-8	3.542372E-2
5.735000E-8	3.561214E-2
5.740000E-8	3.589478E-2
5.745000E-8	3.631445E-2
5.750000E-8	3.696537E-2
5.755000E-8	3.782184E-2
5.760000E-8	3.872970E-2
5.765000E-8	3.975747E-2
5.770000E-8	4.100792E-2
5.775000E-8	4.238684E-2
5.780000E-8	4.374007E-2
5.785000E-8	4.507617E-2
5.790000E-8	4.646365E-2
5.795000E-8	4.779119E-2
5.800000E-8	4.892173E-2
5.805000E-8	4.982959E-2
5.810000E-8	5.057472E-2
5.815000E-8	5.114000E-2
5.820000E-8	5.141407E-2
5.825000E-8	5.139694E-2
5.830000E-8	5.113143E-2
5.835000E-8	5.064324E-2
5.840000E-8	4.986385E-2
5.845000E-8	4.881039E-2
5.850000E-8	4.757707E-2
5.855000E-8	4.619815E-2
5.860000E-8	4.463937E-2
5.865000E-8	4.289216E-2
5.870000E-8	4.110213E-2
5.875000E-8	3.938919E-2
5.880000E-8	3.774476E-2
5.885000E-8	3.614315E-2
5.890000E-8	3.476423E-2
5.895000E-8	3.371933E-2
5.900000E-8	3.299990E-2
5.905000E-8	3.255453E-2
5.910000E-8	3.246888E-2
5.915000E-8	3.277721E-2
5.920000E-8	3.344526E-2
5.925000E-8	3.443877E-2
5.930000E-8	3.570635E-2
5.935000E-8	3.712810E-2
5.940000E-8	3.866975E-2
5.945000E-8	4.028848E-2
5.950000E-8	4.194148E-2
5.955000E-8	4.352595E-2
5.960000E-8	4.496482E-2
5.965000E-8	4.621528E-2
5.970000E-8	4.732869E-2
5.975000E-8	4.833933E-2
5.980000E-8	4.911015E-2
5.985000E-8	4.956408E-2
5.990000E-8	4.984672E-2
5.995000E-8	4.997519E-2
6.000000E-8	4.981246E-2
6.005000E-8	4.940135E-2
6.010000E-8	4.886178E-2
6.015000E-8	4.812521E-2
6.020000E-8	4.705462E-2
6.025000E-8	4.576134E-2
6.030000E-8	4.438242E-2
6.035000E-8	4.287503E-2
6.040000E-8	4.115352E-2
6.045000E-8	3.935493E-2
6.050000E-8	3.767624E-2
6.055000E-8	3.612602E-2
6.060000E-8	3.463576E-2
6.065000E-8	3.329110E-2
6.070000E-8	3.228902E-2
6.075000E-8	3.164667E-2
6.080000E-8	3.135547E-2
6.085000E-8	3.138116E-2
6.090000E-8	3.175801E-2
6.095000E-8	3.244319E-2
6.100000E-8	3.341957E-2
6.105000E-8	3.462720E-2
6.110000E-8	3.601468E-2
6.115000E-8	3.747069E-2
6.120000E-8	3.891813E-2
6.125000E-8	4.034844E-2
6.130000E-8	4.172736E-2
6.135000E-8	4.302063E-2
6.140000E-8	4.416830E-2
6.145000E-8	4.511043E-2
6.150000E-8	4.586412E-2
6.155000E-8	4.648935E-2
6.160000E-8	4.691758E-2
6.165000E-8	4.710601E-2
6.170000E-8	4.712314E-2
6.175000E-8	4.700323E-2
6.180000E-8	4.664351E-2
6.185000E-8	4.601829E-2
6.190000E-8	4.523033E-2
6.195000E-8	4.429678E-2
6.200000E-8	4.314054E-2
6.205000E-8	4.187296E-2
6.210000E-8	4.057112E-2
6.215000E-8	3.917507E-2
6.220000E-8	3.767624E-2
6.225000E-8	3.620311E-2
6.230000E-8	3.488414E-2
6.235000E-8	3.371933E-2
6.240000E-8	3.265731E-2
6.245000E-8	3.174945E-2
6.250000E-8	3.110709E-2
6.255000E-8	3.078163E-2
6.260000E-8	3.072168E-2
6.265000E-8	3.091867E-2
6.270000E-8	3.140686E-2
6.275000E-8	3.214342E-2
6.280000E-8	3.308554E-2
6.285000E-8	3.415614E-2
6.290000E-8	3.532094E-2
6.295000E-8	3.659708E-2
6.300000E-8	3.795031E-2
6.305000E-8	3.927784E-2
6.310000E-8	4.052829E-2
6.315000E-8	4.170166E-2
6.320000E-8	4.272943E-2
6.325000E-8	4.350882E-2
6.330000E-8	4.408266E-2
6.335000E-8	4.445951E-2
6.340000E-8	4.459654E-2
6.345000E-8	4.446807E-2
6.350000E-8	4.415974E-2
6.355000E-8	4.373150E-2
6.360000E-8	4.308915E-2
6.365000E-8	4.224981E-2
6.370000E-8	4.132481E-2
6.375000E-8	4.038269E-2
6.380000E-8	3.938919E-2
6.385000E-8	3.831859E-2
6.390000E-8	3.725657E-2
6.395000E-8	3.627162E-2
6.400000E-8	3.532094E-2
6.405000E-8	3.436169E-2
6.410000E-8	3.350522E-2
6.415000E-8	3.278578E-2
6.420000E-8	3.218625E-2
6.425000E-8	3.167236E-2
6.430000E-8	3.132978E-2
6.435000E-8	3.120987E-2
6.440000E-8	3.125269E-2
6.445000E-8	3.144968E-2
6.450000E-8	3.185222E-2
6.455000E-8	3.243463E-2
6.460000E-8	3.312837E-2
6.465000E-8	3.387350E-2
6.470000E-8	3.473854E-2
6.475000E-8	3.567209E-2
6.480000E-8	3.658852E-2
6.485000E-8	3.747069E-2
6.490000E-8	3.831859E-2
6.495000E-8	3.911511E-2
6.500000E-8	3.980886E-2
6.505000E-8	4.040839E-2
6.510000E-8	4.092227E-2
6.515000E-8	4.136764E-2
6.520000E-8	4.171879E-2
6.525000E-8	4.195004E-2
6.530000E-8	4.203569E-2
6.535000E-8	4.200143E-2
6.540000E-8	4.183870E-2
6.545000E-8	4.152180E-2
6.550000E-8	4.103361E-2
6.555000E-8	4.041695E-2
6.560000E-8	3.965469E-2
6.565000E-8	3.872114E-2
6.570000E-8	3.764198E-2
6.575000E-8	3.649431E-2
6.580000E-8	3.530381E-2
6.585000E-8	3.401910E-2
6.590000E-8	3.276008E-2
6.595000E-8	3.173232E-2
6.600000E-8	3.090154E-2
6.605000E-8	3.015641E-2
6.610000E-8	2.962539E-2
6.615000E-8	2.941984E-2
6.620000E-8	2.941984E-2
6.625000E-8	2.955688E-2
6.630000E-8	2.995085E-2
6.635000E-8	3.061034E-2
6.640000E-8	3.138973E-2
6.645000E-8	3.223764E-2
6.650000E-8	3.320545E-2
6.655000E-8	3.419896E-2
6.660000E-8	3.520103E-2
6.665000E-8	3.620311E-2
6.670000E-8	3.716236E-2
6.675000E-8	3.809591E-2
6.680000E-8	3.895238E-2
6.685000E-8	3.964613E-2
6.690000E-8	4.019427E-2
6.695000E-8	4.071672E-2
6.700000E-8	4.106787E-2
6.705000E-8	4.117065E-2
6.710000E-8	4.107644E-2
6.715000E-8	4.087088E-2
6.720000E-8	4.045978E-2
6.725000E-8	3.987738E-2
6.730000E-8	3.919220E-2
6.735000E-8	3.834429E-2
6.740000E-8	3.732509E-2
6.745000E-8	3.626306E-2
6.750000E-8	3.516677E-2
6.755000E-8	3.398484E-2
6.760000E-8	3.279434E-2
6.765000E-8	3.168093E-2
6.770000E-8	3.061034E-2
6.775000E-8	2.964252E-2
6.780000E-8	2.883744E-2
6.785000E-8	2.820365E-2
6.790000E-8	2.775828E-2
6.795000E-8	2.755273E-2
6.800000E-8	2.760412E-2
6.805000E-8	2.788675E-2
6.810000E-8	2.839207E-2
6.815000E-8	2.911151E-2
6.820000E-8	2.998511E-2
6.825000E-8	3.099575E-2
6.830000E-8	3.210917E-2
6.835000E-8	3.329110E-2
6.840000E-8	3.447303E-2
6.845000E-8	3.560358E-2
6.850000E-8	3.663991E-2
6.855000E-8	3.759059E-2
6.860000E-8	3.841281E-2
6.865000E-8	3.908086E-2
6.870000E-8	3.956905E-2
6.875000E-8	3.986881E-2
6.880000E-8	3.996302E-2
6.885000E-8	3.986025E-2
6.890000E-8	3.960330E-2
6.895000E-8	3.919220E-2
6.900000E-8	3.857554E-2
6.905000E-8	3.776189E-2
6.910000E-8	3.686259E-2
6.915000E-8	3.591191E-2
6.920000E-8	3.484131E-2
6.925000E-8	3.367651E-2
6.930000E-8	3.252884E-2
6.935000E-8	3.139829E-2
6.940000E-8	3.028488E-2
6.945000E-8	2.923142E-2
6.950000E-8	2.834068E-2
6.955000E-8	2.762981E-2
6.960000E-8	2.710736E-2
6.965000E-8	2.680760E-2
6.970000E-8	2.673908E-2
6.975000E-8	2.694463E-2
6.980000E-8	2.734718E-2
6.985000E-8	2.792958E-2
6.990000E-8	2.870040E-2
6.995000E-8	2.962539E-2
7.000000E-8	3.061034E-2
7.005000E-8	3.168093E-2
7.010000E-8	3.276008E-2
7.015000E-8	3.380498E-2
7.020000E-8	3.481562E-2
7.025000E-8	3.575774E-2
7.030000E-8	3.657139E-2
7.035000E-8	3.725657E-2
7.040000E-8	3.777045E-2
7.045000E-8	3.805309E-2
7.050000E-8	3.812161E-2
7.055000E-8	3.801883E-2
7.060000E-8	3.770193E-2
7.065000E-8	3.717949E-2
7.070000E-8	3.653713E-2
7.075000E-8	3.577487E-2
7.080000E-8	3.490127E-2
7.085000E-8	3.399341E-2
7.090000E-8	3.305985E-2
7.095000E-8	3.211773E-2
7.100000E-8	3.124413E-2
7.105000E-8	3.044761E-2
7.110000E-8	2.968535E-2
7.115000E-8	2.903443E-2
7.120000E-8	2.852911E-2
7.125000E-8	2.809231E-2
7.130000E-8	2.769833E-2
7.135000E-8	2.747565E-2
7.140000E-8	2.738143E-2
7.145000E-8	2.730435E-2
7.150000E-8	2.732148E-2
7.155000E-8	2.751847E-2
7.160000E-8	2.781824E-2
7.165000E-8	2.818652E-2
7.170000E-8	2.867471E-2
7.175000E-8	2.928280E-2
7.180000E-8	2.993372E-2
7.185000E-8	3.065316E-2
7.190000E-8	3.145825E-2
7.195000E-8	3.225477E-2
7.200000E-8	3.301703E-2
7.205000E-8	3.372790E-2
7.210000E-8	3.438738E-2
7.215000E-8	3.494409E-2
7.220000E-8	3.539802E-2
7.225000E-8	3.571492E-2
7.230000E-8	3.585195E-2
7.235000E-8	3.588621E-2
7.240000E-8	3.580913E-2
7.245000E-8	3.552649E-2
7.250000E-8	3.514964E-2
7.255000E-8	3.470428E-2
7.260000E-8	3.410475E-2
7.265000E-8	3.339387E-2
7.270000E-8	3.275152E-2
7.275000E-8	3.213486E-2
7.280000E-8	3.142399E-2
7.285000E-8	3.067886E-2
7.290000E-8	2.996798E-2
7.295000E-8	2.926568E-2
7.300000E-8	2.864045E-2
7.305000E-8	2.816082E-2
7.310000E-8	2.774115E-2
7.315000E-8	2.733861E-2
7.320000E-8	2.703028E-2
7.325000E-8	2.680760E-2
7.330000E-8	2.667913E-2
7.335000E-8	2.674764E-2
7.340000E-8	2.695320E-2
7.345000E-8	2.728722E-2
7.350000E-8	2.775828E-2
7.355000E-8	2.834925E-2
7.360000E-8	2.894878E-2
7.365000E-8	2.959113E-2
7.370000E-8	3.033627E-2
7.375000E-8	3.113279E-2
7.380000E-8	3.188648E-2
7.385000E-8	3.257166E-2
7.390000E-8	3.318832E-2
7.395000E-8	3.369364E-2
7.400000E-8	3.405336E-2
7.405000E-8	3.426748E-2
7.410000E-8	3.437025E-2
7.415000E-8	3.437882E-2
7.420000E-8	3.427604E-2
7.425000E-8	3.401054E-2
7.430000E-8	3.365938E-2
7.435000E-8	3.330823E-2
7.440000E-8	3.291425E-2
7.445000E-8	3.238324E-2
7.450000E-8	3.180940E-2
7.455000E-8	3.130408E-2
7.460000E-8	3.073024E-2
7.465000E-8	3.000224E-2
7.470000E-8	2.926568E-2
7.475000E-8	2.859763E-2
7.480000E-8	2.786962E-2
7.485000E-8	2.713306E-2
7.490000E-8	2.649070E-2
7.495000E-8	2.595112E-2
7.500000E-8	2.548863E-2
7.505000E-8	2.514604E-2
7.510000E-8	2.500900E-2
7.515000E-8	2.507752E-2
7.520000E-8	2.534303E-2
7.525000E-8	2.577983E-2
7.530000E-8	2.642218E-2
7.535000E-8	2.722727E-2
7.540000E-8	2.809231E-2
7.545000E-8	2.900017E-2
7.550000E-8	2.996798E-2
7.555000E-8	3.092723E-2
7.560000E-8	3.177514E-2
7.565000E-8	3.250314E-2
7.570000E-8	3.313693E-2
7.575000E-8	3.364225E-2
7.580000E-8	3.395058E-2
7.585000E-8	3.407049E-2
7.590000E-8	3.412188E-2
7.595000E-8	3.413901E-2
7.600000E-8	3.396771E-2
7.605000E-8	3.359086E-2
7.610000E-8	3.317119E-2
7.615000E-8	3.271726E-2
7.620000E-8	3.209204E-2
7.625000E-8	3.137260E-2
7.630000E-8	3.064460E-2
7.635000E-8	2.982238E-2
7.640000E-8	2.888883E-2
7.645000E-8	2.798097E-2
7.650000E-8	2.710736E-2
7.655000E-8	2.621663E-2
7.660000E-8	2.539442E-2
7.665000E-8	2.474350E-2
7.670000E-8	2.422961E-2
7.675000E-8	2.384420E-2
7.680000E-8	2.363865E-2
7.685000E-8	2.359582E-2
7.690000E-8	2.374999E-2
7.695000E-8	2.413540E-2
7.700000E-8	2.466642E-2
7.705000E-8	2.530021E-2
7.710000E-8	2.609673E-2
7.715000E-8	2.695320E-2
7.720000E-8	2.772402E-2
7.725000E-8	2.845203E-2
7.730000E-8	2.921429E-2
7.735000E-8	2.996798E-2
7.740000E-8	3.055895E-2
7.745000E-8	3.097862E-2
7.750000E-8	3.132121E-2
7.755000E-8	3.159528E-2
7.760000E-8	3.174088E-2
7.765000E-8	3.173232E-2
7.770000E-8	3.157815E-2
7.775000E-8	3.132121E-2
7.780000E-8	3.098719E-2
7.785000E-8	3.050756E-2
7.790000E-8	2.993372E-2
7.795000E-8	2.936845E-2
7.800000E-8	2.879461E-2
7.805000E-8	2.810944E-2
7.810000E-8	2.737287E-2
7.815000E-8	2.667913E-2
7.820000E-8	2.602821E-2
7.825000E-8	2.538585E-2
7.830000E-8	2.483771E-2
7.835000E-8	2.440947E-2
7.840000E-8	2.406688E-2
7.845000E-8	2.380994E-2
7.850000E-8	2.370717E-2
7.855000E-8	2.376712E-2
7.860000E-8	2.395554E-2
7.865000E-8	2.422961E-2
7.870000E-8	2.458933E-2
7.875000E-8	2.506039E-2
7.880000E-8	2.561710E-2
7.885000E-8	2.617381E-2
7.890000E-8	2.676477E-2
7.895000E-8	2.739856E-2
7.900000E-8	2.796384E-2
7.905000E-8	2.846059E-2
7.910000E-8	2.894878E-2
7.915000E-8	2.935132E-2
7.920000E-8	2.959970E-2
7.925000E-8	2.981382E-2
7.930000E-8	3.001937E-2
7.935000E-8	3.011358E-2
7.940000E-8	3.010502E-2
7.945000E-8	3.007076E-2
7.950000E-8	2.998511E-2
7.955000E-8	2.977956E-2
7.960000E-8	2.946266E-2
7.965000E-8	2.907725E-2
7.970000E-8	2.864045E-2
7.975000E-8	2.818652E-2
7.980000E-8	2.768976E-2
7.985000E-8	2.715019E-2
7.990000E-8	2.664487E-2
7.995000E-8	2.620807E-2
8.000000E-8	2.579696E-2
8.005000E-8	2.540298E-2
8.010000E-8	2.508609E-2
8.015000E-8	2.488053E-2
8.020000E-8	2.476063E-2
8.025000E-8	2.469211E-2
8.030000E-8	2.470924E-2
8.035000E-8	2.482915E-2
8.040000E-8	2.494905E-2
8.045000E-8	2.505183E-2
8.050000E-8	2.516317E-2
8.055000E-8	2.533446E-2
8.060000E-8	2.548006E-2
8.065000E-8	2.560854E-2
8.070000E-8	2.577983E-2
8.075000E-8	2.596825E-2
8.080000E-8	2.613955E-2
8.085000E-8	2.630228E-2
8.090000E-8	2.651640E-2
8.095000E-8	2.679903E-2
8.100000E-8	2.709023E-2
8.105000E-8	2.732148E-2
8.110000E-8	2.754416E-2
8.115000E-8	2.780111E-2
8.120000E-8	2.802379E-2
8.125000E-8	2.821221E-2
8.130000E-8	2.835781E-2
8.135000E-8	2.845203E-2
8.140000E-8	2.840064E-2
8.145000E-8	2.821221E-2
8.150000E-8	2.798097E-2
8.155000E-8	2.768120E-2
8.160000E-8	2.730435E-2
8.165000E-8	2.683329E-2
8.170000E-8	2.636223E-2
8.175000E-8	2.589974E-2
8.180000E-8	2.543724E-2
8.185000E-8	2.489766E-2
8.190000E-8	2.439234E-2
8.195000E-8	2.405832E-2
8.200000E-8	2.380138E-2
8.205000E-8	2.350161E-2
8.210000E-8	2.321041E-2
8.215000E-8	2.309050E-2
8.220000E-8	2.303055E-2
8.225000E-8	2.294490E-2
8.230000E-8	2.296203E-2
8.235000E-8	2.311620E-2
8.240000E-8	2.329606E-2
8.245000E-8	2.350161E-2
8.250000E-8	2.387846E-2
8.255000E-8	2.436665E-2
8.260000E-8	2.480345E-2
8.265000E-8	2.524025E-2
8.270000E-8	2.578839E-2
8.275000E-8	2.640506E-2
8.280000E-8	2.694463E-2
8.285000E-8	2.739000E-2
8.290000E-8	2.780967E-2
8.295000E-8	2.813513E-2
8.300000E-8	2.835781E-2
8.305000E-8	2.846059E-2
8.310000E-8	2.842633E-2
8.315000E-8	2.823791E-2
8.320000E-8	2.795527E-2
8.325000E-8	2.759555E-2
8.330000E-8	2.715875E-2
8.335000E-8	2.665343E-2
8.340000E-8	2.610529E-2
8.345000E-8	2.551432E-2
8.350000E-8	2.493192E-2
8.355000E-8	2.436665E-2
8.360000E-8	2.379281E-2
8.365000E-8	2.326180E-2
8.370000E-8	2.279074E-2
8.375000E-8	2.243102E-2
8.380000E-8	2.214838E-2
8.385000E-8	2.194283E-2
8.390000E-8	2.183149E-2
8.395000E-8	2.187431E-2
8.400000E-8	2.202848E-2
8.405000E-8	2.223403E-2
8.410000E-8	2.255093E-2
8.415000E-8	2.300486E-2
8.420000E-8	2.350161E-2
8.425000E-8	2.407545E-2
8.430000E-8	2.473493E-2
8.435000E-8	2.535159E-2
8.440000E-8	2.584835E-2
8.445000E-8	2.634510E-2
8.450000E-8	2.682473E-2
8.455000E-8	2.717588E-2
8.460000E-8	2.739000E-2
8.465000E-8	2.751847E-2
8.470000E-8	2.756129E-2
8.475000E-8	2.754416E-2
8.480000E-8	2.744995E-2
8.485000E-8	2.724440E-2
8.490000E-8	2.695320E-2
8.495000E-8	2.667913E-2
8.500000E-8	2.639649E-2
8.505000E-8	2.604534E-2
8.510000E-8	2.565136E-2
8.515000E-8	2.530021E-2
8.520000E-8	2.492336E-2
8.525000E-8	2.449512E-2
8.530000E-8	2.404119E-2
8.535000E-8	2.359582E-2
8.540000E-8	2.316759E-2
8.545000E-8	2.277361E-2
8.550000E-8	2.240533E-2
8.555000E-8	2.208843E-2
8.560000E-8	2.182292E-2
8.565000E-8	2.159168E-2
8.570000E-8	2.148890E-2
8.575000E-8	2.156598E-2
8.580000E-8	2.172015E-2
8.585000E-8	2.190857E-2
8.590000E-8	2.224260E-2
8.595000E-8	2.273079E-2
8.600000E-8	2.323611E-2
8.605000E-8	2.370717E-2
8.610000E-8	2.424674E-2
8.615000E-8	2.478632E-2
8.620000E-8	2.521456E-2
8.625000E-8	2.554858E-2
8.630000E-8	2.582265E-2
8.635000E-8	2.599395E-2
8.640000E-8	2.605390E-2
8.645000E-8	2.604534E-2
8.650000E-8	2.598538E-2
8.655000E-8	2.587404E-2
8.660000E-8	2.571988E-2
8.665000E-8	2.554858E-2
8.670000E-8	2.533446E-2
8.675000E-8	2.508609E-2
8.680000E-8	2.481202E-2
8.685000E-8	2.449512E-2
8.690000E-8	2.416966E-2
8.695000E-8	2.387846E-2
8.700000E-8	2.354444E-2
8.705000E-8	2.315046E-2
8.710000E-8	2.275648E-2
8.715000E-8	2.238820E-2
8.720000E-8	2.202848E-2
8.725000E-8	2.172871E-2
8.730000E-8	2.154885E-2
8.735000E-8	2.144608E-2
8.740000E-8	2.140325E-2
8.745000E-8	2.148034E-2
8.750000E-8	2.166876E-2
8.755000E-8	2.193427E-2
8.760000E-8	2.222547E-2
8.765000E-8	2.254236E-2
8.770000E-8	2.289352E-2
8.775000E-8	2.327893E-2
8.780000E-8	2.357013E-2
8.785000E-8	2.376712E-2
8.790000E-8	2.396411E-2
8.795000E-8	2.412684E-2
8.800000E-8	2.417823E-2
8.805000E-8	2.419536E-2
8.810000E-8	2.428100E-2
8.815000E-8	2.432383E-2
8.820000E-8	2.428100E-2
8.825000E-8	2.422961E-2
8.830000E-8	2.421248E-2
8.835000E-8	2.418679E-2
8.840000E-8	2.410971E-2
8.845000E-8	2.396411E-2
8.850000E-8	2.380138E-2
8.855000E-8	2.362152E-2
8.860000E-8	2.335601E-2
8.865000E-8	2.299629E-2
8.870000E-8	2.267940E-2
8.875000E-8	2.245671E-2
8.880000E-8	2.219977E-2
8.885000E-8	2.192570E-2
8.890000E-8	2.170302E-2
8.895000E-8	2.157455E-2
8.900000E-8	2.142895E-2
8.905000E-8	2.122339E-2
8.910000E-8	2.105210E-2
8.915000E-8	2.092363E-2
8.920000E-8	2.081229E-2
8.925000E-8	2.069238E-2
8.930000E-8	2.062386E-2
8.935000E-8	2.064099E-2
8.940000E-8	2.070095E-2
8.945000E-8	2.080372E-2
8.950000E-8	2.099215E-2
8.955000E-8	2.126622E-2
8.960000E-8	2.156598E-2
8.965000E-8	2.185718E-2
8.970000E-8	2.213982E-2
8.975000E-8	2.243102E-2
8.980000E-8	2.270509E-2
8.985000E-8	2.289352E-2
8.990000E-8	2.304768E-2
8.995000E-8	2.320185E-2
9.000000E-8	2.328749E-2
9.005000E-8	2.330462E-2
9.010000E-8	2.332175E-2
9.015000E-8	2.333888E-2
9.020000E-8	2.330462E-2
9.025000E-8	2.327036E-2
9.030000E-8	2.324467E-2
9.035000E-8	2.317615E-2
9.040000E-8	2.302199E-2
9.045000E-8	2.280787E-2
9.050000E-8	2.257662E-2
9.055000E-8	2.231968E-2
9.060000E-8	2.201991E-2
9.065000E-8	2.167732E-2
9.070000E-8	2.135186E-2
9.075000E-8	2.106066E-2
9.080000E-8	2.077803E-2
9.085000E-8	2.052965E-2
9.090000E-8	2.033266E-2
9.095000E-8	2.020419E-2
9.100000E-8	2.015280E-2
9.105000E-8	2.016993E-2
9.110000E-8	2.022989E-2
9.115000E-8	2.034979E-2
9.120000E-8	2.050396E-2
9.125000E-8	2.068382E-2
9.130000E-8	2.094932E-2
9.135000E-8	2.126622E-2
9.140000E-8	2.152316E-2
9.145000E-8	2.171158E-2
9.150000E-8	2.195996E-2
9.155000E-8	2.221690E-2
9.160000E-8	2.234537E-2
9.165000E-8	2.237963E-2
9.170000E-8	2.244815E-2
9.175000E-8	2.251667E-2
9.180000E-8	2.249097E-2
9.185000E-8	2.240533E-2
9.190000E-8	2.234537E-2
9.195000E-8	2.228542E-2
9.200000E-8	2.218264E-2
9.205000E-8	2.209700E-2
9.210000E-8	2.202848E-2
9.215000E-8	2.200278E-2
9.220000E-8	2.195996E-2
9.225000E-8	2.186575E-2
9.230000E-8	2.170302E-2
9.235000E-8	2.151459E-2
9.240000E-8	2.127478E-2
9.245000E-8	2.098358E-2
9.250000E-8	2.070095E-2
9.255000E-8	2.046113E-2
9.260000E-8	2.021276E-2
9.265000E-8	1.993868E-2
9.270000E-8	1.974170E-2
9.275000E-8	1.962179E-2
9.280000E-8	1.954471E-2
9.285000E-8	1.949332E-2
9.290000E-8	1.950188E-2
9.295000E-8	1.958753E-2
9.300000E-8	1.975883E-2
9.305000E-8	1.993012E-2
9.310000E-8	2.006716E-2
9.315000E-8	2.022989E-2
9.320000E-8	2.042687E-2
9.325000E-8	2.059817E-2
9.330000E-8	2.076090E-2
9.335000E-8	2.093219E-2
9.340000E-8	2.107779E-2
9.345000E-8	2.123196E-2
9.350000E-8	2.139469E-2
9.355000E-8	2.154885E-2
9.360000E-8	2.166876E-2
9.365000E-8	2.178010E-2
9.370000E-8	2.184862E-2
9.375000E-8	2.185718E-2
9.380000E-8	2.181436E-2
9.385000E-8	2.169445E-2
9.390000E-8	2.148890E-2
9.395000E-8	2.128335E-2
9.400000E-8	2.111205E-2
9.405000E-8	2.086368E-2
9.410000E-8	2.055534E-2
9.415000E-8	2.024701E-2
9.420000E-8	1.995581E-2
9.425000E-8	1.963892E-2
9.430000E-8	1.939054E-2
9.435000E-8	1.921068E-2
9.440000E-8	1.907365E-2
9.445000E-8	1.896231E-2
9.450000E-8	1.888522E-2
9.455000E-8	1.885953E-2
9.460000E-8	1.893661E-2
9.465000E-8	1.904795E-2
9.470000E-8	1.918499E-2
9.475000E-8	1.938198E-2
9.480000E-8	1.963892E-2
9.485000E-8	1.987873E-2
9.490000E-8	2.008428E-2
9.495000E-8	2.034979E-2
9.500000E-8	2.063243E-2
9.505000E-8	2.083798E-2
9.510000E-8	2.103497E-2
9.515000E-8	2.127478E-2
9.520000E-8	2.144608E-2
9.525000E-8	2.151459E-2
9.530000E-8	2.157455E-2
9.535000E-8	2.167732E-2
9.540000E-8	2.172015E-2
9.545000E-8	2.166020E-2
9.550000E-8	2.159168E-2
9.555000E-8	2.154885E-2
9.560000E-8	2.146321E-2
9.565000E-8	2.128335E-2
9.570000E-8	2.107779E-2
9.575000E-8	2.089793E-2
9.580000E-8	2.076946E-2
9.585000E-8	2.060673E-2
9.590000E-8	2.038405E-2
9.595000E-8	2.013567E-2
9.600000E-8	1.992155E-2
9.605000E-8	1.973313E-2
9.610000E-8	1.957897E-2
9.615000E-8	1.945049E-2
9.620000E-8	1.927064E-2
9.625000E-8	1.909934E-2
9.630000E-8	1.894518E-2
9.635000E-8	1.880814E-2
9.640000E-8	1.870536E-2
9.645000E-8	1.868823E-2
9.650000E-8	1.871393E-2
9.655000E-8	1.875675E-2
9.660000E-8	1.885096E-2
9.665000E-8	1.898800E-2
9.670000E-8	1.911647E-2
9.675000E-8	1.929633E-2
9.680000E-8	1.953614E-2
9.685000E-8	1.973313E-2
9.690000E-8	1.989586E-2
9.695000E-8	2.008428E-2
9.700000E-8	2.020419E-2
9.705000E-8	2.023845E-2
9.710000E-8	2.028984E-2
9.715000E-8	2.034979E-2
9.720000E-8	2.036692E-2
9.725000E-8	2.029840E-2
9.730000E-8	2.022132E-2
9.735000E-8	2.017850E-2
9.740000E-8	2.010141E-2
9.745000E-8	1.997294E-2
9.750000E-8	1.977595E-2
9.755000E-8	1.958753E-2
9.760000E-8	1.942480E-2
9.765000E-8	1.921925E-2
9.770000E-8	1.896231E-2
9.775000E-8	1.876532E-2
9.780000E-8	1.861115E-2
9.785000E-8	1.840560E-2
9.790000E-8	1.826000E-2
9.795000E-8	1.825143E-2
9.800000E-8	1.828569E-2
9.805000E-8	1.826856E-2
9.810000E-8	1.828569E-2
9.815000E-8	1.839703E-2
9.820000E-8	1.849125E-2
9.825000E-8	1.855976E-2
9.830000E-8	1.862828E-2
9.835000E-8	1.874819E-2
9.840000E-8	1.888522E-2
9.845000E-8	1.901369E-2
9.850000E-8	1.909934E-2
9.855000E-8	1.912504E-2
9.860000E-8	1.912504E-2
9.865000E-8	1.915929E-2
9.870000E-8	1.927064E-2
9.875000E-8	1.936485E-2
9.880000E-8	1.940767E-2
9.885000E-8	1.944193E-2
9.890000E-8	1.951045E-2
9.895000E-8	1.956184E-2
9.900000E-8	1.954471E-2
9.905000E-8	1.947619E-2
9.910000E-8	1.943337E-2
9.915000E-8	1.940767E-2
9.920000E-8	1.934772E-2
9.925000E-8	1.924494E-2
9.930000E-8	1.915073E-2
9.935000E-8	1.905652E-2
9.940000E-8	1.893661E-2
9.945000E-8	1.879101E-2
9.950000E-8	1.863685E-2
9.955000E-8	1.849981E-2
9.960000E-8	1.835421E-2
9.965000E-8	1.819148E-2
9.970000E-8	1.797736E-2
9.975000E-8	1.776324E-2
9.980000E-8	1.760051E-2
9.985000E-8	1.746348E-2
9.990000E-8	1.734357E-2
9.995000E-8	1.723223E-2
1.000000E-7	1.718941E-2
1.000500E-7	1.720654E-2
1.001000E-7	1.730931E-2
1.001500E-7	1.747204E-2
1.002000E-7	1.767760E-2
1.002500E-7	1.785746E-2
1.003000E-7	1.805444E-2
1.003500E-7	1.827713E-2
1.004000E-7	1.845699E-2
1.004500E-7	1.857689E-2
1.005000E-7	1.867967E-2
1.005500E-7	1.879101E-2
1.006000E-7	1.887666E-2
1.006500E-7	1.886809E-2
1.007000E-7	1.881670E-2
1.007500E-7	1.879958E-2
1.008000E-7	1.878245E-2
1.008500E-7	1.873106E-2
1.009000E-7	1.867110E-2
1.009500E-7	1.861972E-2
1.010000E-7	1.854263E-2
1.010500E-7	1.843129E-2
1.011000E-7	1.837134E-2
1.011500E-7	1.838847E-2
1.012000E-7	1.834564E-2
1.012500E-7	1.820861E-2
1.013000E-7	1.807157E-2
1.013500E-7	1.792597E-2
1.014000E-7	1.771185E-2
1.014500E-7	1.748061E-2
1.015000E-7	1.731788E-2
1.015500E-7	1.717228E-2
1.016000E-7	1.698385E-2
1.016500E-7	1.685538E-2
1.017000E-7	1.682969E-2
1.017500E-7	1.682112E-2
1.018000E-7	1.682969E-2
1.018500E-7	1.688108E-2
1.019000E-7	1.700955E-2
1.019500E-7	1.718084E-2
1.020000E-7	1.733501E-2
1.020500E-7	1.747204E-2
1.021000E-7	1.763477E-2
1.021500E-7	1.784889E-2
1.022000E-7	1.802875E-2
1.022500E-7	1.814866E-2
1.023000E-7	1.826000E-2
1.023500E-7	1.832852E-2
1.024000E-7	1.830282E-2
1.024500E-7	1.827713E-2
1.025000E-7	1.832852E-2
1.025500E-7	1.833708E-2
1.026000E-7	1.826000E-2
1.026500E-7	1.817435E-2
1.027000E-7	1.808870E-2
1.027500E-7	1.794310E-2
1.028000E-7	1.774611E-2
1.028500E-7	1.753200E-2
1.029000E-7	1.734357E-2
1.029500E-7	1.721510E-2
1.030000E-7	1.707806E-2
1.030500E-7	1.689821E-2
1.031000E-7	1.677830E-2
1.031500E-7	1.670978E-2
1.032000E-7	1.664126E-2
1.032500E-7	1.664126E-2
1.033000E-7	1.671835E-2
1.033500E-7	1.677830E-2
1.034000E-7	1.679543E-2
1.034500E-7	1.682112E-2
1.035000E-7	1.688108E-2
1.035500E-7	1.691533E-2
1.036000E-7	1.693246E-2
1.036500E-7	1.698385E-2
1.037000E-7	1.707806E-2
1.037500E-7	1.716371E-2
1.038000E-7	1.719797E-2
1.038500E-7	1.720654E-2
1.039000E-7	1.724079E-2
1.039500E-7	1.730931E-2
1.040000E-7	1.736927E-2
1.040500E-7	1.736070E-2
1.041000E-7	1.735214E-2
1.041500E-7	1.735214E-2
1.042000E-7	1.731788E-2
1.042500E-7	1.726649E-2
1.043000E-7	1.724936E-2
1.043500E-7	1.724936E-2
1.044000E-7	1.718084E-2
1.044500E-7	1.711232E-2
1.045000E-7	1.705237E-2
1.045500E-7	1.698385E-2
1.046000E-7	1.688108E-2
1.046500E-7	1.678686E-2
1.047000E-7	1.665839E-2
1.047500E-7	1.650423E-2
1.048000E-7	1.637576E-2
1.048500E-7	1.624729E-2
1.049000E-7	1.609312E-2
1.049500E-7	1.599034E-2
1.050000E-7	1.594752E-2
1.050500E-7	1.589613E-2
1.051000E-7	1.590470E-2
1.051500E-7	1.600747E-2
1.052000E-7	1.607599E-2
1.052500E-7	1.614451E-2
1.053000E-7	1.630724E-2
1.053500E-7	1.649566E-2
1.054000E-7	1.659844E-2
1.054500E-7	1.665839E-2
1.055000E-7	1.676973E-2
1.055500E-7	1.690677E-2
1.056000E-7	1.698385E-2
1.056500E-7	1.697529E-2
1.057000E-7	1.693246E-2
1.057500E-7	1.692390E-2
1.058000E-7	1.692390E-2
1.058500E-7	1.686395E-2
1.059000E-7	1.676117E-2
1.059500E-7	1.666696E-2
1.060000E-7	1.660700E-2
1.060500E-7	1.654705E-2
1.061000E-7	1.645284E-2
1.061500E-7	1.640145E-2
1.062000E-7	1.639289E-2
1.062500E-7	1.634150E-2
1.063000E-7	1.625585E-2
1.063500E-7	1.619590E-2
1.064000E-7	1.619590E-2
1.064500E-7	1.618733E-2
1.065000E-7	1.614451E-2
1.065500E-7	1.613594E-2
1.066000E-7	1.613594E-2
1.066500E-7	1.611025E-2
1.067000E-7	1.602460E-2
1.067500E-7	1.593039E-2
1.068000E-7	1.583618E-2
1.068500E-7	1.570771E-2
1.069000E-7	1.556211E-2
1.069500E-7	1.543364E-2
1.070000E-7	1.533086E-2
1.070500E-7	1.521952E-2
1.071000E-7	1.509961E-2
1.071500E-7	1.503966E-2
1.072000E-7	1.502253E-2
1.072500E-7	1.505679E-2
1.073000E-7	1.511674E-2
1.073500E-7	1.523665E-2
1.074000E-7	1.543364E-2
1.074500E-7	1.559637E-2
1.075000E-7	1.571627E-2
1.075500E-7	1.589613E-2
1.076000E-7	1.610169E-2
1.076500E-7	1.620446E-2
1.077000E-7	1.623016E-2
1.077500E-7	1.629011E-2
1.078000E-7	1.634150E-2
1.078500E-7	1.629011E-2
1.079000E-7	1.624729E-2
1.079500E-7	1.623016E-2
1.080000E-7	1.616164E-2
1.080500E-7	1.608456E-2
1.081000E-7	1.605886E-2
1.081500E-7	1.604173E-2
1.082000E-7	1.593896E-2
1.082500E-7	1.576766E-2
1.083000E-7	1.555354E-2
1.083500E-7	1.535655E-2
1.084000E-7	1.518526E-2
1.084500E-7	1.500540E-2
1.085000E-7	1.482554E-2
1.085500E-7	1.469707E-2
1.086000E-7	1.456860E-2
1.086500E-7	1.446582E-2
1.087000E-7	1.450865E-2
1.087500E-7	1.462855E-2
1.088000E-7	1.469707E-2
1.088500E-7	1.474846E-2
1.089000E-7	1.487693E-2
1.089500E-7	1.501396E-2
1.090000E-7	1.511674E-2
1.090500E-7	1.518526E-2
1.091000E-7	1.521952E-2
1.091500E-7	1.521095E-2
1.092000E-7	1.521952E-2
1.092500E-7	1.519382E-2
1.093000E-7	1.511674E-2
1.093500E-7	1.511674E-2
1.094000E-7	1.520239E-2
1.094500E-7	1.526234E-2
1.095000E-7	1.527947E-2
1.095500E-7	1.536512E-2
1.096000E-7	1.547646E-2
1.096500E-7	1.554498E-2
1.097000E-7	1.562206E-2
1.097500E-7	1.571627E-2
1.098000E-7	1.570771E-2
1.098500E-7	1.558780E-2
1.099000E-7	1.546790E-2
1.099500E-7	1.539081E-2
1.100000E-7	1.527091E-2
1.100500E-7	1.509961E-2
1.101000E-7	1.492832E-2
1.101500E-7	1.474846E-2
1.102000E-7	1.459429E-2
1.102500E-7	1.448295E-2
1.103000E-7	1.439730E-2
1.103500E-7	1.435448E-2
1.104000E-7	1.432879E-2
1.104500E-7	1.431166E-2
1.105000E-7	1.433735E-2
1.105500E-7	1.444013E-2
1.106000E-7	1.453434E-2
1.106500E-7	1.457716E-2
1.107000E-7	1.461999E-2
1.107500E-7	1.470563E-2
1.108000E-7	1.474846E-2
1.108500E-7	1.473133E-2
1.109000E-7	1.473133E-2
1.109500E-7	1.478272E-2
1.110000E-7	1.485123E-2
1.110500E-7	1.487693E-2
1.111000E-7	1.491119E-2
1.111500E-7	1.498827E-2
1.112000E-7	1.508248E-2
1.112500E-7	1.521095E-2
1.113000E-7	1.533942E-2
1.113500E-7	1.537368E-2
1.114000E-7	1.535655E-2
1.114500E-7	1.537368E-2
1.115000E-7	1.537368E-2
1.115500E-7	1.525378E-2
1.116000E-7	1.507392E-2
1.116500E-7	1.484267E-2
1.117000E-7	1.456860E-2
1.117500E-7	1.433735E-2
1.118000E-7	1.417462E-2
1.118500E-7	1.397763E-2
1.119000E-7	1.376351E-2
1.119500E-7	1.370356E-2
1.120000E-7	1.369500E-2
1.120500E-7	1.360078E-2
1.121000E-7	1.354940E-2
1.121500E-7	1.362648E-2
1.122000E-7	1.369500E-2
1.122500E-7	1.370356E-2
1.123000E-7	1.375495E-2
1.123500E-7	1.384060E-2
1.124000E-7	1.390055E-2
1.124500E-7	1.393481E-2
1.125000E-7	1.400333E-2
1.125500E-7	1.407184E-2
1.126000E-7	1.414036E-2
1.126500E-7	1.420888E-2
1.127000E-7	1.424314E-2
1.127500E-7	1.429453E-2
1.128000E-7	1.432879E-2
1.128500E-7	1.432879E-2
1.129000E-7	1.432879E-2
1.129500E-7	1.438017E-2
1.130000E-7	1.441443E-2
1.130500E-7	1.437161E-2
1.131000E-7	1.429453E-2
1.131500E-7	1.423457E-2
1.132000E-7	1.416606E-2
1.132500E-7	1.408897E-2
1.133000E-7	1.402046E-2
1.133500E-7	1.392624E-2
1.134000E-7	1.384916E-2
1.134500E-7	1.379777E-2
1.135000E-7	1.375495E-2
1.135500E-7	1.372069E-2
1.136000E-7	1.375495E-2
1.136500E-7	1.381490E-2
1.137000E-7	1.385773E-2
1.137500E-7	1.393481E-2
1.138000E-7	1.398620E-2
1.138500E-7	1.397763E-2
1.139000E-7	1.396907E-2
1.139500E-7	1.404615E-2
1.140000E-7	1.407184E-2
1.140500E-7	1.398620E-2
1.141000E-7	1.394337E-2
1.141500E-7	1.396907E-2
1.142000E-7	1.392624E-2
1.142500E-7	1.383203E-2
1.143000E-7	1.384916E-2
1.143500E-7	1.387486E-2
1.144000E-7	1.387486E-2
1.144500E-7	1.387486E-2
1.145000E-7	1.392624E-2
1.145500E-7	1.395194E-2
1.146000E-7	1.396050E-2
1.146500E-7	1.397763E-2
1.147000E-7	1.396907E-2
1.147500E-7	1.397763E-2
1.148000E-7	1.402902E-2
1.148500E-7	1.406328E-2
1.149000E-7	1.403759E-2
1.149500E-7	1.400333E-2
1.150000E-7	1.395194E-2
1.150500E-7	1.387486E-2
1.151000E-7	1.381490E-2
1.151500E-7	1.377208E-2
1.152000E-7	1.372069E-2
1.152500E-7	1.364361E-2
1.153000E-7	1.360935E-2
1.153500E-7	1.360935E-2
1.154000E-7	1.357509E-2
1.154500E-7	1.348088E-2
1.155000E-7	1.340380E-2
1.155500E-7	1.341236E-2
1.156000E-7	1.344662E-2
1.156500E-7	1.346375E-2
1.157000E-7	1.348088E-2
1.157500E-7	1.348944E-2
1.158000E-7	1.349801E-2
1.158500E-7	1.350657E-2
1.159000E-7	1.352370E-2
1.159500E-7	1.353227E-2
1.160000E-7	1.357509E-2
1.160500E-7	1.359222E-2
1.161000E-7	1.358365E-2
1.161500E-7	1.355796E-2
1.162000E-7	1.348944E-2
1.162500E-7	1.339523E-2
1.163000E-7	1.334384E-2
1.163500E-7	1.330958E-2
1.164000E-7	1.328389E-2
1.164500E-7	1.327532E-2
1.165000E-7	1.327532E-2
1.165500E-7	1.330958E-2
1.166000E-7	1.336097E-2
1.166500E-7	1.337810E-2
1.167000E-7	1.332671E-2
1.167500E-7	1.331815E-2
1.168000E-7	1.335241E-2
1.168500E-7	1.331815E-2
1.169000E-7	1.326676E-2
1.169500E-7	1.324107E-2
1.170000E-7	1.318111E-2
1.170500E-7	1.306977E-2
1.171000E-7	1.302695E-2
1.171500E-7	1.303551E-2
1.172000E-7	1.299269E-2
1.172500E-7	1.294130E-2
1.173000E-7	1.295843E-2
1.173500E-7	1.298412E-2
1.174000E-7	1.299269E-2
1.174500E-7	1.304408E-2
1.175000E-7	1.306977E-2
1.175500E-7	1.306121E-2
1.176000E-7	1.308690E-2
1.176500E-7	1.313829E-2
1.177000E-7	1.317255E-2
1.177500E-7	1.321537E-2
1.178000E-7	1.323250E-2
1.178500E-7	1.317255E-2
1.179000E-7	1.314685E-2
1.179500E-7	1.317255E-2
1.180000E-7	1.314685E-2
1.180500E-7	1.306977E-2
1.181000E-7	1.305264E-2
1.181500E-7	1.306121E-2
1.182000E-7	1.301838E-2
1.182500E-7	1.298412E-2
1.183000E-7	1.302695E-2
1.183500E-7	1.308690E-2
1.184000E-7	1.311259E-2
1.184500E-7	1.311259E-2
1.185000E-7	1.312972E-2
1.185500E-7	1.312972E-2
1.186000E-7	1.312972E-2
1.186500E-7	1.310403E-2
1.187000E-7	1.305264E-2
1.187500E-7	1.302695E-2
1.188000E-7	1.297556E-2
1.188500E-7	1.282996E-2
1.189000E-7	1.266723E-2
1.189500E-7	1.260728E-2
1.190000E-7	1.256445E-2
1.190500E-7	1.247024E-2
1.191000E-7	1.241885E-2
1.191500E-7	1.245311E-2
1.192000E-7	1.247024E-2
1.192500E-7	1.243598E-2
1.193000E-7	1.244455E-2
1.193500E-7	1.249593E-2
1.194000E-7	1.254732E-2
1.194500E-7	1.260728E-2
1.195000E-7	1.268436E-2
1.195500E-7	1.272718E-2
1.196000E-7	1.275288E-2
1.196500E-7	1.277857E-2
1.197000E-7	1.280426E-2
1.197500E-7	1.282139E-2
1.198000E-7	1.279570E-2
1.198500E-7	1.271005E-2
1.199000E-7	1.263297E-2
1.199500E-7	1.257302E-2
1.200000E-7	1.251306E-2
1.200500E-7	1.244455E-2
1.201000E-7	1.238459E-2
1.201500E-7	1.235890E-2
1.202000E-7	1.233320E-2
1.202500E-7	1.233320E-2
1.203000E-7	1.235890E-2
1.203500E-7	1.236746E-2
1.204000E-7	1.235890E-2
1.204500E-7	1.240172E-2
1.205000E-7	1.247024E-2
1.205500E-7	1.247880E-2
1.206000E-7	1.241885E-2
1.206500E-7	1.236746E-2
1.207000E-7	1.230751E-2
1.207500E-7	1.223043E-2
1.208000E-7	1.213622E-2
1.208500E-7	1.202487E-2
1.209000E-7	1.184501E-2
1.209500E-7	1.170798E-2
1.210000E-7	1.161377E-2
1.210500E-7	1.152812E-2
1.211000E-7	1.145960E-2
1.211500E-7	1.146817E-2
1.212000E-7	1.153668E-2
1.212500E-7	1.163090E-2
1.213000E-7	1.175080E-2
1.213500E-7	1.192210E-2
1.214000E-7	1.213622E-2
1.214500E-7	1.232464E-2
1.215000E-7	1.249593E-2
1.215500E-7	1.265010E-2
1.216000E-7	1.278713E-2
1.216500E-7	1.282996E-2
1.217000E-7	1.280426E-2
1.217500E-7	1.280426E-2
1.218000E-7	1.277001E-2
1.218500E-7	1.259015E-2
1.219000E-7	1.241885E-2
1.219500E-7	1.234177E-2
1.220000E-7	1.224756E-2
1.220500E-7	1.208483E-2
1.221000E-7	1.200774E-2
1.221500E-7	1.199918E-2
1.222000E-7	1.198205E-2
1.222500E-7	1.196492E-2
1.223000E-7	1.197349E-2
1.223500E-7	1.197349E-2
1.224000E-7	1.200774E-2
1.224500E-7	1.208483E-2
1.225000E-7	1.210196E-2
1.225500E-7	1.209339E-2
1.226000E-7	1.207626E-2
1.226500E-7	1.204200E-2
1.227000E-7	1.202487E-2
1.227500E-7	1.206770E-2
1.228000E-7	1.210196E-2
1.228500E-7	1.208483E-2
1.229000E-7	1.211909E-2
1.229500E-7	1.220473E-2
1.230000E-7	1.221330E-2
1.230500E-7	1.217047E-2
1.231000E-7	1.218760E-2
1.231500E-7	1.223899E-2
1.232000E-7	1.223043E-2
1.232500E-7	1.217904E-2
1.233000E-7	1.216191E-2
1.233500E-7	1.214478E-2
1.234000E-7	1.206770E-2
1.234500E-7	1.199062E-2
1.235000E-7	1.195636E-2
1.235500E-7	1.192210E-2
1.236000E-7	1.181932E-2
1.236500E-7	1.171654E-2
1.237000E-7	1.172511E-2
1.237500E-7	1.177650E-2
1.238000E-7	1.175937E-2
1.238500E-7	1.174224E-2
1.239000E-7	1.179363E-2
1.239500E-7	1.186214E-2
1.240000E-7	1.187071E-2
1.240500E-7	1.186214E-2
1.241000E-7	1.182789E-2
1.241500E-7	1.175080E-2
1.242000E-7	1.169085E-2
1.242500E-7	1.163090E-2
1.243000E-7	1.152812E-2
1.243500E-7	1.141678E-2
1.244000E-7	1.130544E-2
1.244500E-7	1.113414E-2
1.245000E-7	1.098854E-2
1.245500E-7	1.092002E-2
1.246000E-7	1.086864E-2
1.246500E-7	1.080012E-2
1.247000E-7	1.078299E-2
1.247500E-7	1.082581E-2
1.248000E-7	1.081725E-2
1.248500E-7	1.081725E-2
1.249000E-7	1.088576E-2
1.249500E-7	1.098854E-2
1.250000E-7	1.109132E-2
1.250500E-7	1.118553E-2
1.251000E-7	1.128831E-2
1.251500E-7	1.139108E-2
1.252000E-7	1.146817E-2
1.252500E-7	1.151955E-2
1.253000E-7	1.155381E-2
1.253500E-7	1.163946E-2
1.254000E-7	1.172511E-2
1.254500E-7	1.175080E-2
1.255000E-7	1.181076E-2
1.255500E-7	1.190497E-2
1.256000E-7	1.194779E-2
1.256500E-7	1.191353E-2
1.257000E-7	1.187927E-2
1.257500E-7	1.188784E-2
1.258000E-7	1.188784E-2
1.258500E-7	1.184501E-2
1.259000E-7	1.178506E-2
1.259500E-7	1.170798E-2
1.260000E-7	1.157951E-2
1.260500E-7	1.145960E-2
1.261000E-7	1.132257E-2
1.261500E-7	1.117697E-2
1.262000E-7	1.100567E-2
1.262500E-7	1.086864E-2
1.263000E-7	1.078299E-2
1.263500E-7	1.074016E-2
1.264000E-7	1.066308E-2
1.264500E-7	1.059456E-2
1.265000E-7	1.062026E-2
1.265500E-7	1.073160E-2
1.266000E-7	1.081725E-2
1.266500E-7	1.086864E-2
1.267000E-7	1.093715E-2
1.267500E-7	1.099711E-2
1.268000E-7	1.098854E-2
1.268500E-7	1.095428E-2
1.269000E-7	1.093715E-2
1.269500E-7	1.096285E-2
1.270000E-7	1.099711E-2
1.270500E-7	1.101424E-2
1.271000E-7	1.103137E-2
1.271500E-7	1.104849E-2
1.272000E-7	1.105706E-2
1.272500E-7	1.103993E-2
1.273000E-7	1.104849E-2
1.273500E-7	1.103993E-2
1.274000E-7	1.090289E-2
1.274500E-7	1.069734E-2
1.275000E-7	1.052605E-2
1.275500E-7	1.037188E-2
1.276000E-7	1.019202E-2
1.276500E-7	1.002929E-2
1.277000E-7	9.909386E-3
1.277500E-7	9.806609E-3
1.278000E-7	9.763785E-3
1.278500E-7	9.840868E-3
1.279000E-7	9.952209E-3
1.279500E-7	1.001216E-2
1.280000E-7	1.007212E-2
1.280500E-7	1.014920E-2
1.281000E-7	1.018346E-2
1.281500E-7	1.016633E-2
1.282000E-7	1.015776E-2
1.282500E-7	1.010637E-2
1.283000E-7	1.001216E-2
1.283500E-7	1.001216E-2
1.284000E-7	1.006355E-2
1.284500E-7	1.007212E-2
1.285000E-7	1.008925E-2
1.285500E-7	1.020059E-2
1.286000E-7	1.031193E-2
1.286500E-7	1.038045E-2
1.287000E-7	1.049179E-2
1.287500E-7	1.059456E-2
1.288000E-7	1.068021E-2
1.288500E-7	1.072304E-2
1.289000E-7	1.074873E-2
1.289500E-7	1.074873E-2
1.290000E-7	1.075729E-2
1.290500E-7	1.068878E-2
1.291000E-7	1.057743E-2
1.291500E-7	1.056031E-2
1.292000E-7	1.064595E-2
1.292500E-7	1.065452E-2
1.293000E-7	1.060313E-2
1.293500E-7	1.068878E-2
1.294000E-7	1.082581E-2
1.294500E-7	1.084294E-2
1.295000E-7	1.081725E-2
1.295500E-7	1.086864E-2
1.296000E-7	1.086864E-2
1.296500E-7	1.077442E-2
1.297000E-7	1.068878E-2
1.297500E-7	1.060313E-2
1.298000E-7	1.049179E-2
1.298500E-7	1.037188E-2
1.299000E-7	1.031193E-2
1.299500E-7	1.027767E-2
1.300000E-7	1.026910E-2
1.300500E-7	1.030336E-2
1.301000E-7	1.035475E-2
1.301500E-7	1.043183E-2
1.302000E-7	1.056887E-2
1.302500E-7	1.068878E-2
1.303000E-7	1.076586E-2
1.303500E-7	1.084294E-2
1.304000E-7	1.089433E-2
1.304500E-7	1.090289E-2
1.305000E-7	1.088576E-2
1.305500E-7	1.086864E-2
1.306000E-7	1.080868E-2
1.306500E-7	1.072304E-2
1.307000E-7	1.070591E-2
1.307500E-7	1.072304E-2
1.308000E-7	1.069734E-2
1.308500E-7	1.062026E-2
1.309000E-7	1.055174E-2
1.309500E-7	1.053461E-2
1.310000E-7	1.050892E-2
1.310500E-7	1.041470E-2
1.311000E-7	1.028623E-2
1.311500E-7	1.020915E-2
1.312000E-7	1.014920E-2
1.312500E-7	1.005499E-2
1.313000E-7	9.986468E-3
1.313500E-7	9.952209E-3
1.314000E-7	9.892256E-3
1.314500E-7	9.823738E-3
1.315000E-7	9.789480E-3
1.315500E-7	9.772350E-3
1.316000E-7	9.763785E-3
1.316500E-7	9.746656E-3
1.317000E-7	9.720962E-3
1.317500E-7	9.712397E-3
1.318000E-7	9.703832E-3
1.318500E-7	9.609620E-3
1.319000E-7	9.481149E-3
1.319500E-7	9.438326E-3
1.320000E-7	9.421196E-3
1.320500E-7	9.361243E-3
1.321000E-7	9.344114E-3
1.321500E-7	9.386937E-3
1.322000E-7	9.361243E-3
1.322500E-7	9.326984E-3
1.323000E-7	9.412631E-3
1.323500E-7	9.506843E-3
1.324000E-7	9.541102E-3
1.324500E-7	9.609620E-3
1.325000E-7	9.720962E-3
1.325500E-7	9.789480E-3
1.326000E-7	9.840868E-3
1.326500E-7	9.866562E-3
1.327000E-7	9.909386E-3
1.327500E-7	9.960774E-3
1.328000E-7	9.986468E-3
1.328500E-7	9.952209E-3
1.329000E-7	9.900821E-3
1.329500E-7	9.823738E-3
1.330000E-7	9.661009E-3
1.330500E-7	9.455455E-3
1.331000E-7	9.326984E-3
1.331500E-7	9.258466E-3
1.332000E-7	9.172819E-3
1.332500E-7	9.112866E-3
1.333000E-7	9.129995E-3
1.333500E-7	9.172819E-3
1.334000E-7	9.241337E-3
1.334500E-7	9.335549E-3
1.335000E-7	9.481149E-3
1.335500E-7	9.635314E-3
1.336000E-7	9.763785E-3
1.336500E-7	9.892256E-3
1.337000E-7	1.000360E-2
1.337500E-7	1.007212E-2
1.338000E-7	1.005499E-2
1.338500E-7	1.001216E-2
1.339000E-7	9.917951E-3
1.339500E-7	9.763785E-3
1.340000E-7	9.583926E-3
1.340500E-7	9.438326E-3
1.341000E-7	9.361243E-3
1.341500E-7	9.335549E-3
1.342000E-7	9.301290E-3
1.342500E-7	9.284161E-3
1.343000E-7	9.344114E-3
1.343500E-7	9.464020E-3
1.344000E-7	9.575361E-3
1.344500E-7	9.661009E-3
1.345000E-7	9.755221E-3
1.345500E-7	9.857997E-3
1.346000E-7	9.900821E-3
1.346500E-7	9.849433E-3
1.347000E-7	9.772350E-3
1.347500E-7	9.669573E-3
1.348000E-7	9.549667E-3
1.348500E-7	9.429761E-3
1.349000E-7	9.352678E-3
1.349500E-7	9.284161E-3
1.350000E-7	9.241337E-3
1.350500E-7	9.224207E-3
1.351000E-7	9.224207E-3
1.351500E-7	9.275596E-3
1.352000E-7	9.361243E-3
1.352500E-7	9.429761E-3
1.353000E-7	9.455455E-3
1.353500E-7	9.472585E-3
1.354000E-7	9.446890E-3
1.354500E-7	9.309855E-3
1.355000E-7	9.215643E-3
1.355500E-7	9.207078E-3
1.356000E-7	9.129995E-3
1.356500E-7	9.010089E-3
1.357000E-7	8.992960E-3
1.357500E-7	9.044348E-3
1.358000E-7	9.035783E-3
1.358500E-7	9.044348E-3
1.359000E-7	9.155690E-3
1.359500E-7	9.198513E-3
1.360000E-7	9.164254E-3
1.360500E-7	9.138560E-3
1.361000E-7	9.121431E-3
1.361500E-7	9.095736E-3
1.362000E-7	9.112866E-3
1.362500E-7	9.147125E-3
1.363000E-7	9.104301E-3
1.363500E-7	9.027219E-3
1.364000E-7	8.984395E-3
1.364500E-7	8.967266E-3
1.365000E-7	9.010089E-3
1.365500E-7	9.095736E-3
1.366000E-7	9.121431E-3
1.366500E-7	9.070042E-3
1.367000E-7	9.027219E-3
1.367500E-7	9.001524E-3
1.368000E-7	8.924442E-3
1.368500E-7	8.864489E-3
1.369000E-7	8.907312E-3
1.369500E-7	8.941571E-3
1.370000E-7	8.881618E-3
1.370500E-7	8.753147E-3
1.371000E-7	8.676065E-3
1.371500E-7	8.667500E-3
1.372000E-7	8.650371E-3
1.372500E-7	8.590417E-3
1.373000E-7	8.513335E-3
1.373500E-7	8.487641E-3
1.374000E-7	8.461946E-3
1.374500E-7	8.427688E-3
1.375000E-7	8.384864E-3
1.375500E-7	8.376299E-3
1.376000E-7	8.359170E-3
1.376500E-7	8.359170E-3
1.377000E-7	8.401993E-3
1.377500E-7	8.513335E-3
1.378000E-7	8.616112E-3
1.378500E-7	8.650371E-3
1.379000E-7	8.684629E-3
1.379500E-7	8.770277E-3
1.380000E-7	8.838795E-3
1.380500E-7	8.821665E-3
1.381000E-7	8.813100E-3
1.381500E-7	8.864489E-3
1.382000E-7	8.864489E-3
1.382500E-7	8.778841E-3
1.383000E-7	8.736018E-3
1.383500E-7	8.813100E-3
1.384000E-7	8.864489E-3
1.384500E-7	8.847359E-3
1.385000E-7	8.873053E-3
1.385500E-7	8.958701E-3
1.386000E-7	9.018654E-3
1.386500E-7	9.018654E-3
1.387000E-7	9.010089E-3
1.387500E-7	8.941571E-3
1.388000E-7	8.804536E-3
1.388500E-7	8.676065E-3
1.389000E-7	8.581853E-3
1.389500E-7	8.470511E-3
1.390000E-7	8.393429E-3
1.390500E-7	8.384864E-3
1.391000E-7	8.367734E-3
1.391500E-7	8.410558E-3
1.392000E-7	8.513335E-3
1.392500E-7	8.624676E-3
1.393000E-7	8.718888E-3
1.393500E-7	8.864489E-3
1.394000E-7	8.984395E-3
1.394500E-7	9.010089E-3
1.395000E-7	8.958701E-3
1.395500E-7	8.890183E-3
1.396000E-7	8.770277E-3
1.396500E-7	8.616112E-3
1.397000E-7	8.479076E-3
1.397500E-7	8.384864E-3
1.398000E-7	8.324911E-3
1.398500E-7	8.222134E-3
1.399000E-7	8.187875E-3
1.399500E-7	8.324911E-3
1.400000E-7	8.530464E-3
1.400500E-7	8.684629E-3
1.401000E-7	8.838795E-3
1.401500E-7	9.001524E-3
1.402000E-7	9.087172E-3
1.402500E-7	9.112866E-3
1.403000E-7	9.155690E-3
1.403500E-7	9.181384E-3
1.404000E-7	9.112866E-3
1.404500E-7	8.967266E-3
1.405000E-7	8.787406E-3
1.405500E-7	8.616112E-3
1.406000E-7	8.461946E-3
1.406500E-7	8.350605E-3
1.407000E-7	8.307781E-3
1.407500E-7	8.333475E-3
1.408000E-7	8.367734E-3
1.408500E-7	8.410558E-3
1.409000E-7	8.513335E-3
1.409500E-7	8.658935E-3
1.410000E-7	8.787406E-3
1.410500E-7	8.873053E-3
1.411000E-7	8.924442E-3
1.411500E-7	9.010089E-3
1.412000E-7	9.035783E-3
1.412500E-7	8.967266E-3
1.413000E-7	8.881618E-3
1.413500E-7	8.813100E-3
1.414000E-7	8.701759E-3
1.414500E-7	8.564723E-3
1.415000E-7	8.470511E-3
1.415500E-7	8.393429E-3
1.416000E-7	8.350605E-3
1.416500E-7	8.376299E-3
1.417000E-7	8.436252E-3
1.417500E-7	8.479076E-3
1.418000E-7	8.564723E-3
1.418500E-7	8.701759E-3
1.419000E-7	8.838795E-3
1.419500E-7	8.967266E-3
1.420000E-7	9.035783E-3
1.420500E-7	9.070042E-3
1.421000E-7	9.112866E-3
1.421500E-7	9.095736E-3
1.422000E-7	9.027219E-3
1.422500E-7	8.975830E-3
1.423000E-7	8.941571E-3
1.423500E-7	8.821665E-3
1.424000E-7	8.676065E-3
1.424500E-7	8.573288E-3
1.425000E-7	8.419123E-3
1.425500E-7	8.230699E-3
1.426000E-7	8.162181E-3
1.426500E-7	8.119357E-3
1.427000E-7	7.982322E-3
1.427500E-7	7.948063E-3
1.428000E-7	8.102228E-3
1.428500E-7	8.222134E-3
1.429000E-7	8.264958E-3
1.429500E-7	8.393429E-3
1.430000E-7	8.556158E-3
1.430500E-7	8.607547E-3
1.431000E-7	8.607547E-3
1.431500E-7	8.641806E-3
1.432000E-7	8.633241E-3
1.432500E-7	8.530464E-3
1.433000E-7	8.427688E-3
1.433500E-7	8.290652E-3
1.434000E-7	8.145051E-3
1.434500E-7	8.016580E-3
1.435000E-7	7.939498E-3
1.435500E-7	7.905239E-3
1.436000E-7	7.896674E-3
1.436500E-7	7.930933E-3
1.437000E-7	8.008016E-3
1.437500E-7	8.162181E-3
1.438000E-7	8.282087E-3
1.438500E-7	8.342040E-3
1.439000E-7	8.410558E-3
1.439500E-7	8.461946E-3
1.440000E-7	8.419123E-3
1.440500E-7	8.359170E-3
1.441000E-7	8.342040E-3
1.441500E-7	8.282087E-3
1.442000E-7	8.162181E-3
1.442500E-7	8.042275E-3
1.443000E-7	7.922368E-3
1.443500E-7	7.845286E-3
1.444000E-7	7.819592E-3
1.444500E-7	7.802462E-3
1.445000E-7	7.776768E-3
1.445500E-7	7.819592E-3
1.446000E-7	7.913804E-3
1.446500E-7	7.982322E-3
1.447000E-7	8.025145E-3
1.447500E-7	8.119357E-3
1.448000E-7	8.196440E-3
1.448500E-7	8.222134E-3
1.449000E-7	8.264958E-3
1.449500E-7	8.299217E-3
1.450000E-7	8.290652E-3
1.450500E-7	8.205005E-3
1.451000E-7	8.085098E-3
1.451500E-7	7.965192E-3
1.452000E-7	7.888110E-3
1.452500E-7	7.742509E-3
1.453000E-7	7.536956E-3
1.453500E-7	7.417049E-3
1.454000E-7	7.399920E-3
1.454500E-7	7.365661E-3
1.455000E-7	7.331402E-3
1.455500E-7	7.357096E-3
1.456000E-7	7.408485E-3
1.456500E-7	7.468438E-3
1.457000E-7	7.579779E-3
1.457500E-7	7.716815E-3
1.458000E-7	7.802462E-3
1.458500E-7	7.870980E-3
1.459000E-7	7.939498E-3
1.459500E-7	7.930933E-3
1.460000E-7	7.913804E-3
1.460500E-7	7.922368E-3
1.461000E-7	7.896674E-3
1.461500E-7	7.845286E-3
1.462000E-7	7.845286E-3
1.462500E-7	7.862415E-3
1.463000E-7	7.862415E-3
1.463500E-7	7.888110E-3
1.464000E-7	7.973757E-3
1.464500E-7	8.008016E-3
1.465000E-7	8.033710E-3
1.465500E-7	8.127922E-3
1.466000E-7	8.179310E-3
1.466500E-7	8.145051E-3
1.467000E-7	8.119357E-3
1.467500E-7	8.153616E-3
1.468000E-7	8.145051E-3
1.468500E-7	8.085098E-3
1.469000E-7	7.999451E-3
1.469500E-7	7.905239E-3
1.470000E-7	7.759639E-3
1.470500E-7	7.571215E-3
1.471000E-7	7.357096E-3
1.471500E-7	7.168672E-3
1.472000E-7	7.091590E-3
1.472500E-7	7.031637E-3
1.473000E-7	6.911730E-3
1.473500E-7	6.791824E-3
1.474000E-7	6.800389E-3
1.474500E-7	6.860342E-3
1.475000E-7	6.937425E-3
1.475500E-7	7.005942E-3
1.476000E-7	7.083025E-3
1.476500E-7	7.151543E-3
1.477000E-7	7.185802E-3
1.477500E-7	7.194366E-3
1.478000E-7	7.185802E-3
1.478500E-7	7.142978E-3
1.479000E-7	7.040201E-3
1.479500E-7	6.920295E-3
1.480000E-7	6.868907E-3
1.480500E-7	6.877471E-3
1.481000E-7	6.911730E-3
1.481500E-7	6.945989E-3
1.482000E-7	6.971683E-3
1.482500E-7	7.005942E-3
1.483000E-7	7.100154E-3
1.483500E-7	7.211496E-3
1.484000E-7	7.228625E-3
1.484500E-7	7.211496E-3
1.485000E-7	7.220061E-3
1.485500E-7	7.237190E-3
1.486000E-7	7.220061E-3
1.486500E-7	7.160108E-3
1.487000E-7	7.125849E-3
1.487500E-7	7.185802E-3
1.488000E-7	7.262884E-3
1.488500E-7	7.271449E-3
1.489000E-7	7.280014E-3
1.489500E-7	7.391355E-3
1.490000E-7	7.468438E-3
1.490500E-7	7.451308E-3
1.491000E-7	7.468438E-3
1.491500E-7	7.511261E-3
1.492000E-7	7.477003E-3
1.492500E-7	7.357096E-3
1.493000E-7	7.262884E-3
1.493500E-7	7.211496E-3
1.494000E-7	7.134413E-3
1.494500E-7	7.074460E-3
1.495000E-7	7.023072E-3
1.495500E-7	6.971683E-3
1.496000E-7	6.971683E-3
1.496500E-7	7.005942E-3
1.497000E-7	7.048766E-3
1.497500E-7	7.117284E-3
1.498000E-7	7.194366E-3
1.498500E-7	7.280014E-3
1.499000E-7	7.382790E-3
1.499500E-7	7.485567E-3
1.500000E-7	7.536956E-3
1.500500E-7	7.579779E-3
1.501000E-7	7.673991E-3
1.501500E-7	7.776768E-3
1.502000E-7	7.802462E-3
1.502500E-7	7.819592E-3
1.503000E-7	7.853851E-3
1.503500E-7	7.853851E-3
1.504000E-7	7.776768E-3
1.504500E-7	7.673991E-3
1.505000E-7	7.579779E-3
1.505500E-7	7.485567E-3
1.506000E-7	7.408485E-3
1.506500E-7	7.339967E-3
1.507000E-7	7.245755E-3
1.507500E-7	7.185802E-3
1.508000E-7	7.194366E-3
1.508500E-7	7.228625E-3
1.509000E-7	7.254320E-3
1.509500E-7	7.305708E-3
1.510000E-7	7.339967E-3
1.510500E-7	7.331402E-3
1.511000E-7	7.322837E-3
1.511500E-7	7.357096E-3
1.512000E-7	7.339967E-3
1.512500E-7	7.288578E-3
1.513000E-7	7.262884E-3
1.513500E-7	7.271449E-3
1.514000E-7	7.220061E-3
1.514500E-7	7.142978E-3
1.515000E-7	7.100154E-3
1.515500E-7	7.100154E-3
1.516000E-7	7.125849E-3
1.516500E-7	7.160108E-3
1.517000E-7	7.185802E-3
1.517500E-7	7.177237E-3
1.518000E-7	7.160108E-3
1.518500E-7	7.160108E-3
1.519000E-7	7.142978E-3
1.519500E-7	7.151543E-3
1.520000E-7	7.185802E-3
1.520500E-7	7.177237E-3
1.521000E-7	7.125849E-3
1.521500E-7	7.117284E-3
1.522000E-7	7.117284E-3
1.522500E-7	7.014507E-3
1.523000E-7	6.868907E-3
1.523500E-7	6.808954E-3
1.524000E-7	6.783259E-3
1.524500E-7	6.671918E-3
1.525000E-7	6.534882E-3
1.525500E-7	6.432105E-3
1.526000E-7	6.346458E-3
1.526500E-7	6.243681E-3
1.527000E-7	6.183728E-3
1.527500E-7	6.200858E-3
1.528000E-7	6.286505E-3
1.528500E-7	6.380717E-3
1.529000E-7	6.457800E-3
1.529500E-7	6.534882E-3
1.530000E-7	6.603400E-3
1.530500E-7	6.637659E-3
1.531000E-7	6.611965E-3
1.531500E-7	6.594835E-3
1.532000E-7	6.620530E-3
1.532500E-7	6.629094E-3
1.533000E-7	6.603400E-3
1.533500E-7	6.586271E-3
1.534000E-7	6.620530E-3
1.534500E-7	6.697612E-3
1.535000E-7	6.808954E-3
1.535500E-7	6.937425E-3
1.536000E-7	7.091590E-3
1.536500E-7	7.245755E-3
1.537000E-7	7.399920E-3
1.537500E-7	7.545520E-3
1.538000E-7	7.648297E-3
1.538500E-7	7.673991E-3
1.539000E-7	7.665427E-3
1.539500E-7	7.648297E-3
1.540000E-7	7.554085E-3
1.540500E-7	7.348532E-3
1.541000E-7	7.142978E-3
1.541500E-7	7.014507E-3
1.542000E-7	6.886036E-3
1.542500E-7	6.731871E-3
1.543000E-7	6.611965E-3
1.543500E-7	6.586271E-3
1.544000E-7	6.603400E-3
1.544500E-7	6.569141E-3
1.545000E-7	6.526318E-3
1.545500E-7	6.534882E-3
1.546000E-7	6.560576E-3
1.546500E-7	6.543447E-3
1.547000E-7	6.526318E-3
1.547500E-7	6.569141E-3
1.548000E-7	6.594835E-3
1.548500E-7	6.534882E-3
1.549000E-7	6.500623E-3
1.549500E-7	6.552012E-3
1.550000E-7	6.569141E-3
1.550500E-7	6.534882E-3
1.551000E-7	6.552012E-3
1.551500E-7	6.569141E-3
1.552000E-7	6.543447E-3
1.552500E-7	6.517753E-3
1.553000E-7	6.517753E-3
1.553500E-7	6.543447E-3
1.554000E-7	6.569141E-3
1.554500E-7	6.543447E-3
1.555000E-7	6.423541E-3
1.555500E-7	6.295070E-3
1.556000E-7	6.166599E-3
1.556500E-7	6.038128E-3
1.557000E-7	5.961045E-3
1.557500E-7	5.935351E-3
1.558000E-7	5.849704E-3
1.558500E-7	5.755492E-3
1.559000E-7	5.781186E-3
1.559500E-7	5.858269E-3
1.560000E-7	5.875398E-3
1.560500E-7	5.926786E-3
1.561000E-7	6.055257E-3
1.561500E-7	6.209423E-3
1.562000E-7	6.329329E-3
1.562500E-7	6.466364E-3
1.563000E-7	6.534882E-3
1.563500E-7	6.509188E-3
1.564000E-7	6.440670E-3
1.564500E-7	6.372152E-3
1.565000E-7	6.252246E-3
1.565500E-7	6.115210E-3
1.566000E-7	5.943916E-3
1.566500E-7	5.712668E-3
1.567000E-7	5.532809E-3
1.567500E-7	5.472856E-3
1.568000E-7	5.464291E-3
1.568500E-7	5.430032E-3
1.569000E-7	5.438597E-3
1.569500E-7	5.567068E-3
1.570000E-7	5.738362E-3
1.570500E-7	5.943916E-3
1.571000E-7	6.158034E-3
1.571500E-7	6.320764E-3
1.572000E-7	6.414976E-3
1.572500E-7	6.526318E-3
1.573000E-7	6.663353E-3
1.573500E-7	6.749000E-3
1.574000E-7	6.749000E-3
1.574500E-7	6.740436E-3
1.575000E-7	6.706177E-3
1.575500E-7	6.637659E-3
1.576000E-7	6.509188E-3
1.576500E-7	6.397847E-3
1.577000E-7	6.329329E-3
1.577500E-7	6.260811E-3
1.578000E-7	6.166599E-3
1.578500E-7	6.072387E-3
1.579000E-7	6.020998E-3
1.579500E-7	6.020998E-3
1.580000E-7	6.080952E-3
1.580500E-7	6.166599E-3
1.581000E-7	6.312199E-3
1.581500E-7	6.440670E-3
1.582000E-7	6.517753E-3
1.582500E-7	6.620530E-3
1.583000E-7	6.800389E-3
1.583500E-7	6.911730E-3
1.584000E-7	6.911730E-3
1.584500E-7	6.877471E-3
1.585000E-7	6.911730E-3
1.585500E-7	6.886036E-3
1.586000E-7	6.706177E-3
1.586500E-7	6.500623E-3
1.587000E-7	6.346458E-3
1.587500E-7	6.192293E-3
1.588000E-7	6.003869E-3
1.588500E-7	5.875398E-3
1.589000E-7	5.858269E-3
1.589500E-7	5.858269E-3
1.590000E-7	5.841139E-3
1.590500E-7	5.849704E-3
1.591000E-7	5.892528E-3
1.591500E-7	5.943916E-3
1.592000E-7	6.012434E-3
1.592500E-7	6.115210E-3
1.593000E-7	6.209423E-3
1.593500E-7	6.260811E-3
1.594000E-7	6.286505E-3
1.594500E-7	6.320764E-3
1.595000E-7	6.329329E-3
1.595500E-7	6.295070E-3
1.596000E-7	6.243681E-3
1.596500E-7	6.149469E-3
1.597000E-7	6.046693E-3
1.597500E-7	5.995304E-3
1.598000E-7	5.961045E-3
1.598500E-7	5.909657E-3
1.599000E-7	5.841139E-3
1.599500E-7	5.764057E-3
1.600000E-7	5.652715E-3
1.600500E-7	5.567068E-3
1.601000E-7	5.549938E-3
1.601500E-7	5.575633E-3
1.602000E-7	5.584197E-3
1.602500E-7	5.584197E-3
1.603000E-7	5.592762E-3
1.603500E-7	5.618456E-3
1.604000E-7	5.652715E-3
1.604500E-7	5.644150E-3
1.605000E-7	5.678409E-3
1.605500E-7	5.832574E-3
1.606000E-7	5.978175E-3
1.606500E-7	6.020998E-3
1.607000E-7	6.063822E-3
1.607500E-7	6.209423E-3
1.608000E-7	6.337893E-3
1.608500E-7	6.346458E-3
1.609000E-7	6.363588E-3
1.609500E-7	6.397847E-3
1.610000E-7	6.372152E-3
1.610500E-7	6.260811E-3
1.611000E-7	6.106646E-3
1.611500E-7	5.961045E-3
1.612000E-7	5.815445E-3
1.612500E-7	5.678409E-3
1.613000E-7	5.524244E-3
1.613500E-7	5.370079E-3
1.614000E-7	5.292996E-3
1.614500E-7	5.275867E-3
1.615000E-7	5.267302E-3
1.615500E-7	5.301561E-3
1.616000E-7	5.421467E-3
1.616500E-7	5.532809E-3
1.617000E-7	5.567068E-3
1.617500E-7	5.609891E-3
1.618000E-7	5.661280E-3
1.618500E-7	5.678409E-3
1.619000E-7	5.661280E-3
1.619500E-7	5.661280E-3
1.620000E-7	5.669845E-3
1.620500E-7	5.661280E-3
1.621000E-7	5.669845E-3
1.621500E-7	5.686974E-3
1.622000E-7	5.695539E-3
1.622500E-7	5.738362E-3
1.623000E-7	5.841139E-3
1.623500E-7	5.918222E-3
1.624000E-7	5.961045E-3
1.624500E-7	5.995304E-3
1.625000E-7	6.020998E-3
1.625500E-7	5.995304E-3
1.626000E-7	5.883963E-3
1.626500E-7	5.764057E-3
1.627000E-7	5.669845E-3
1.627500E-7	5.515679E-3
1.628000E-7	5.318691E-3
1.628500E-7	5.138831E-3
1.629000E-7	5.027490E-3
1.629500E-7	4.958972E-3
1.630000E-7	4.924713E-3
1.630500E-7	4.899019E-3
1.631000E-7	4.916148E-3
1.631500E-7	5.044619E-3
1.632000E-7	5.198784E-3
1.632500E-7	5.275867E-3
1.633000E-7	5.335820E-3
1.633500E-7	5.438597E-3
1.634000E-7	5.515679E-3
1.634500E-7	5.515679E-3
1.635000E-7	5.455726E-3
1.635500E-7	5.395773E-3
1.636000E-7	5.335820E-3
1.636500E-7	5.267302E-3
1.637000E-7	5.215914E-3
1.637500E-7	5.181655E-3
1.638000E-7	5.198784E-3
1.638500E-7	5.215914E-3
1.639000E-7	5.241608E-3
1.639500E-7	5.258738E-3
1.640000E-7	5.284432E-3
1.640500E-7	5.301561E-3
1.641000E-7	5.292996E-3
1.641500E-7	5.258738E-3
1.642000E-7	5.155961E-3
1.642500E-7	5.044619E-3
1.643000E-7	4.941843E-3
1.643500E-7	4.881889E-3
1.644000E-7	4.830501E-3
1.644500E-7	4.719160E-3
1.645000E-7	4.616383E-3
1.645500E-7	4.633512E-3
1.646000E-7	4.727724E-3
1.646500E-7	4.770548E-3
1.647000E-7	4.821936E-3
1.647500E-7	4.907584E-3
1.648000E-7	4.933278E-3
1.648500E-7	4.924713E-3
1.649000E-7	5.001796E-3
1.649500E-7	5.121702E-3
1.650000E-7	5.104572E-3
1.650500E-7	5.001796E-3
1.651000E-7	4.941843E-3
1.651500E-7	4.899019E-3
1.652000E-7	4.813372E-3
1.652500E-7	4.736289E-3
1.653000E-7	4.744854E-3
1.653500E-7	4.779113E-3
1.654000E-7	4.779113E-3
1.654500E-7	4.779113E-3
1.655000E-7	4.796242E-3
1.655500E-7	4.813372E-3
1.656000E-7	4.830501E-3
1.656500E-7	4.804807E-3
1.657000E-7	4.779113E-3
1.657500E-7	4.779113E-3
1.658000E-7	4.744854E-3
1.658500E-7	4.659206E-3
1.659000E-7	4.564994E-3
1.659500E-7	4.496477E-3
1.660000E-7	4.410829E-3
1.660500E-7	4.299488E-3
1.661000E-7	4.248099E-3
1.661500E-7	4.282358E-3
1.662000E-7	4.308052E-3
1.662500E-7	4.290923E-3
1.663000E-7	4.325182E-3
1.663500E-7	4.445088E-3
1.664000E-7	4.582124E-3
1.664500E-7	4.633512E-3
1.665000E-7	4.684901E-3
1.665500E-7	4.813372E-3
1.666000E-7	4.958972E-3
1.666500E-7	5.001796E-3
1.667000E-7	5.010360E-3
1.667500E-7	5.087443E-3
1.668000E-7	5.121702E-3
1.668500E-7	5.061749E-3
1.669000E-7	5.010360E-3
1.669500E-7	5.001796E-3
1.670000E-7	4.924713E-3
1.670500E-7	4.779113E-3
1.671000E-7	4.693465E-3
1.671500E-7	4.684901E-3
1.672000E-7	4.642077E-3
1.672500E-7	4.564994E-3
1.673000E-7	4.582124E-3
1.673500E-7	4.667771E-3
1.674000E-7	4.702030E-3
1.674500E-7	4.702030E-3
1.675000E-7	4.753418E-3
1.675500E-7	4.821936E-3
1.676000E-7	4.856195E-3
1.676500E-7	4.881889E-3
1.677000E-7	4.907584E-3
1.677500E-7	4.873325E-3
1.678000E-7	4.779113E-3
1.678500E-7	4.633512E-3
1.679000E-7	4.470782E-3
1.679500E-7	4.368006E-3
1.680000E-7	4.325182E-3
1.680500E-7	4.273794E-3
1.681000E-7	4.239535E-3
1.681500E-7	4.290923E-3
1.682000E-7	4.376570E-3
1.682500E-7	4.470782E-3
1.683000E-7	4.633512E-3
1.683500E-7	4.821936E-3
1.684000E-7	4.924713E-3
1.684500E-7	4.993231E-3
1.685000E-7	5.061749E-3
1.685500E-7	5.061749E-3
1.686000E-7	4.976101E-3
1.686500E-7	4.907584E-3
1.687000E-7	4.821936E-3
1.687500E-7	4.693465E-3
1.688000E-7	4.599253E-3
1.688500E-7	4.530735E-3
1.689000E-7	4.453653E-3
1.689500E-7	4.445088E-3
1.690000E-7	4.496477E-3
1.690500E-7	4.573559E-3
1.691000E-7	4.667771E-3
1.691500E-7	4.770548E-3
1.692000E-7	4.881889E-3
1.692500E-7	4.950407E-3
1.693000E-7	4.976101E-3
1.693500E-7	4.976101E-3
1.694000E-7	4.933278E-3
1.694500E-7	4.839066E-3
1.695000E-7	4.736289E-3
1.695500E-7	4.642077E-3
1.696000E-7	4.539300E-3
1.696500E-7	4.402265E-3
1.697000E-7	4.282358E-3
1.697500E-7	4.256664E-3
1.698000E-7	4.248099E-3
1.698500E-7	4.213840E-3
1.699000E-7	4.205276E-3
1.699500E-7	4.308052E-3
1.700000E-7	4.436523E-3
1.700500E-7	4.487912E-3
1.701000E-7	4.539300E-3
1.701500E-7	4.676336E-3
1.702000E-7	4.736289E-3
1.702500E-7	4.684901E-3
1.703000E-7	4.693465E-3
1.703500E-7	4.761983E-3
1.704000E-7	4.727724E-3
1.704500E-7	4.624947E-3
1.705000E-7	4.607818E-3
1.705500E-7	4.659206E-3
1.706000E-7	4.642077E-3
1.706500E-7	4.556430E-3
1.707000E-7	4.513606E-3
1.707500E-7	4.539300E-3
1.708000E-7	4.539300E-3
1.708500E-7	4.539300E-3
1.709000E-7	4.556430E-3
1.709500E-7	4.539300E-3
1.710000E-7	4.487912E-3
1.710500E-7	4.427959E-3
1.711000E-7	4.393700E-3
1.711500E-7	4.393700E-3
1.712000E-7	4.359441E-3
1.712500E-7	4.290923E-3
1.713000E-7	4.256664E-3
1.713500E-7	4.248099E-3
1.714000E-7	4.273794E-3
1.714500E-7	4.282358E-3
1.715000E-7	4.308052E-3
1.715500E-7	4.350876E-3
1.716000E-7	4.402265E-3
1.716500E-7	4.427959E-3
1.717000E-7	4.453653E-3
1.717500E-7	4.445088E-3
1.718000E-7	4.402265E-3
1.718500E-7	4.342311E-3
1.719000E-7	4.265229E-3
1.719500E-7	4.162452E-3
1.720000E-7	4.051111E-3
1.720500E-7	3.956899E-3
1.721000E-7	3.914075E-3
1.721500E-7	3.931204E-3
1.722000E-7	3.939769E-3
1.722500E-7	3.974028E-3
1.723000E-7	4.042546E-3
1.723500E-7	4.153887E-3
1.724000E-7	4.239535E-3
1.724500E-7	4.316617E-3
1.725000E-7	4.402265E-3
1.725500E-7	4.479347E-3
1.726000E-7	4.556430E-3
1.726500E-7	4.590689E-3
1.727000E-7	4.607818E-3
1.727500E-7	4.599253E-3
1.728000E-7	4.573559E-3
1.728500E-7	4.530735E-3
1.729000E-7	4.496477E-3
1.729500E-7	4.513606E-3
1.730000E-7	4.539300E-3
1.730500E-7	4.582124E-3
1.731000E-7	4.616383E-3
1.731500E-7	4.659206E-3
1.732000E-7	4.710595E-3
1.732500E-7	4.744854E-3
1.733000E-7	4.736289E-3
1.733500E-7	4.710595E-3
1.734000E-7	4.650642E-3
1.734500E-7	4.539300E-3
1.735000E-7	4.410829E-3
1.735500E-7	4.316617E-3
1.736000E-7	4.196711E-3
1.736500E-7	4.042546E-3
1.737000E-7	3.896945E-3
1.737500E-7	3.777039E-3
1.738000E-7	3.648568E-3
1.738500E-7	3.537227E-3
1.739000E-7	3.511533E-3
1.739500E-7	3.537227E-3
1.740000E-7	3.597180E-3
1.740500E-7	3.691392E-3
1.741000E-7	3.836992E-3
1.741500E-7	3.991157E-3
1.742000E-7	4.128193E-3
1.742500E-7	4.265229E-3
1.743000E-7	4.368006E-3
1.743500E-7	4.453653E-3
1.744000E-7	4.513606E-3
1.744500E-7	4.505041E-3
1.745000E-7	4.462218E-3
1.745500E-7	4.393700E-3
1.746000E-7	4.290923E-3
1.746500E-7	4.171017E-3
1.747000E-7	4.136758E-3
1.747500E-7	4.171017E-3
1.748000E-7	4.188146E-3
1.748500E-7	4.213840E-3
1.749000E-7	4.325182E-3
1.749500E-7	4.505041E-3
1.750000E-7	4.642077E-3
1.750500E-7	4.719160E-3
1.751000E-7	4.804807E-3
1.751500E-7	4.899019E-3
1.752000E-7	4.916148E-3
1.752500E-7	4.873325E-3
1.753000E-7	4.804807E-3
1.753500E-7	4.676336E-3
1.754000E-7	4.496477E-3
1.754500E-7	4.290923E-3
1.755000E-7	4.093934E-3
1.755500E-7	3.931204E-3
1.756000E-7	3.854122E-3
1.756500E-7	3.845557E-3
1.757000E-7	3.879816E-3
1.757500E-7	3.956899E-3
1.758000E-7	4.068240E-3
1.758500E-7	4.196711E-3
1.759000E-7	4.333747E-3
1.759500E-7	4.427959E-3
1.760000E-7	4.470782E-3
1.760500E-7	4.470782E-3
1.761000E-7	4.419394E-3
1.761500E-7	4.273794E-3
1.762000E-7	4.093934E-3
1.762500E-7	3.922640E-3
1.763000E-7	3.768475E-3
1.763500E-7	3.614309E-3
1.764000E-7	3.502968E-3
1.764500E-7	3.460144E-3
1.765000E-7	3.485838E-3
1.765500E-7	3.562921E-3
1.766000E-7	3.682827E-3
1.766500E-7	3.845557E-3
1.767000E-7	4.042546E-3
1.767500E-7	4.179582E-3
1.768000E-7	4.273794E-3
1.768500E-7	4.368006E-3
1.769000E-7	4.445088E-3
1.769500E-7	4.487912E-3
1.770000E-7	4.462218E-3
1.770500E-7	4.376570E-3
1.771000E-7	4.299488E-3
1.771500E-7	4.230970E-3
1.772000E-7	4.136758E-3
1.772500E-7	4.025416E-3
1.773000E-7	3.939769E-3
1.773500E-7	3.854122E-3
1.774000E-7	3.759910E-3
1.774500E-7	3.674262E-3
1.775000E-7	3.571486E-3
1.775500E-7	3.485838E-3
1.776000E-7	3.451580E-3
1.776500E-7	3.468709E-3
1.777000E-7	3.537227E-3
1.777500E-7	3.665698E-3
1.778000E-7	3.785604E-3
1.778500E-7	3.862687E-3
1.779000E-7	3.939769E-3
1.779500E-7	4.051111E-3
1.780000E-7	4.145323E-3
1.780500E-7	4.162452E-3
1.781000E-7	4.153887E-3
1.781500E-7	4.171017E-3
1.782000E-7	4.145323E-3
1.782500E-7	4.059675E-3
1.783000E-7	3.982593E-3
1.783500E-7	3.914075E-3
1.784000E-7	3.836992E-3
1.784500E-7	3.777039E-3
1.785000E-7	3.751345E-3
1.785500E-7	3.734216E-3
1.786000E-7	3.699957E-3
1.786500E-7	3.682827E-3
1.787000E-7	3.691392E-3
1.787500E-7	3.777039E-3
1.788000E-7	3.879816E-3
1.788500E-7	3.922640E-3
1.789000E-7	3.965463E-3
1.789500E-7	4.085370E-3
1.790000E-7	4.188146E-3
1.790500E-7	4.205276E-3
1.791000E-7	4.188146E-3
1.791500E-7	4.188146E-3
1.792000E-7	4.153887E-3
1.792500E-7	4.042546E-3
1.793000E-7	3.896945E-3
1.793500E-7	3.794169E-3
1.794000E-7	3.742780E-3
1.794500E-7	3.665698E-3
1.795000E-7	3.554356E-3
1.795500E-7	3.528662E-3
1.796000E-7	3.588615E-3
1.796500E-7	3.588615E-3
1.797000E-7	3.562921E-3
1.797500E-7	3.597180E-3
1.798000E-7	3.640004E-3
1.798500E-7	3.631439E-3
1.799000E-7	3.622874E-3
1.799500E-7	3.665698E-3
1.800000E-7	3.699957E-3
1.800500E-7	3.734216E-3
1.801000E-7	3.845557E-3
1.801500E-7	3.965463E-3
1.802000E-7	4.008287E-3
1.802500E-7	4.051111E-3
1.803000E-7	4.093934E-3
1.803500E-7	4.145323E-3
1.804000E-7	4.153887E-3
1.804500E-7	4.076805E-3
1.805000E-7	3.948334E-3
1.805500E-7	3.888381E-3
1.806000E-7	3.845557E-3
1.806500E-7	3.691392E-3
1.807000E-7	3.537227E-3
1.807500E-7	3.502968E-3
1.808000E-7	3.511533E-3
1.808500E-7	3.511533E-3
1.809000E-7	3.545792E-3
1.809500E-7	3.622874E-3
1.810000E-7	3.691392E-3
1.810500E-7	3.751345E-3
1.811000E-7	3.794169E-3
1.811500E-7	3.836992E-3
1.812000E-7	3.888381E-3
1.812500E-7	3.871251E-3
1.813000E-7	3.794169E-3
1.813500E-7	3.759910E-3
1.814000E-7	3.742780E-3
1.814500E-7	3.631439E-3
1.815000E-7	3.528662E-3
1.815500E-7	3.511533E-3
1.816000E-7	3.485838E-3
1.816500E-7	3.408756E-3
1.817000E-7	3.400191E-3
1.817500E-7	3.443015E-3
1.818000E-7	3.451580E-3
1.818500E-7	3.477274E-3
1.819000E-7	3.545792E-3
1.819500E-7	3.562921E-3
1.820000E-7	3.528662E-3
1.820500E-7	3.537227E-3
1.821000E-7	3.554356E-3
1.821500E-7	3.554356E-3
1.822000E-7	3.562921E-3
1.822500E-7	3.554356E-3
1.823000E-7	3.554356E-3
1.823500E-7	3.588615E-3
1.824000E-7	3.622874E-3
1.824500E-7	3.580050E-3
1.825000E-7	3.562921E-3
1.825500E-7	3.674262E-3
1.826000E-7	3.751345E-3
1.826500E-7	3.708521E-3
1.827000E-7	3.708521E-3
1.827500E-7	3.751345E-3
1.828000E-7	3.751345E-3
1.828500E-7	3.734216E-3
1.829000E-7	3.699957E-3
1.829500E-7	3.640004E-3
1.830000E-7	3.631439E-3
1.830500E-7	3.708521E-3
1.831000E-7	3.751345E-3
1.831500E-7	3.828428E-3
1.832000E-7	3.939769E-3
1.832500E-7	4.025416E-3
1.833000E-7	4.111064E-3
1.833500E-7	4.290923E-3
1.834000E-7	4.410829E-3
1.834500E-7	4.427959E-3
1.835000E-7	4.487912E-3
1.835500E-7	4.599253E-3
1.836000E-7	4.539300E-3
1.836500E-7	4.385135E-3
1.837000E-7	4.239535E-3
1.837500E-7	4.076805E-3
1.838000E-7	3.871251E-3
1.838500E-7	3.725651E-3
1.839000E-7	3.605745E-3
1.839500E-7	3.520097E-3
1.840000E-7	3.494403E-3
1.840500E-7	3.511533E-3
1.841000E-7	3.545792E-3
1.841500E-7	3.665698E-3
1.842000E-7	3.862687E-3
1.842500E-7	4.025416E-3
1.843000E-7	4.171017E-3
1.843500E-7	4.342311E-3
1.844000E-7	4.462218E-3
1.844500E-7	4.539300E-3
1.845000E-7	4.633512E-3
1.845500E-7	4.693465E-3
1.846000E-7	4.582124E-3
1.846500E-7	4.402265E-3
1.847000E-7	4.290923E-3
1.847500E-7	4.213840E-3
1.848000E-7	4.093934E-3
1.848500E-7	3.965463E-3
1.849000E-7	3.888381E-3
1.849500E-7	3.819863E-3
1.850000E-7	3.734216E-3
1.850500E-7	3.691392E-3
1.851000E-7	3.725651E-3
1.851500E-7	3.785604E-3
1.852000E-7	3.811298E-3
1.852500E-7	3.794169E-3
1.853000E-7	3.785604E-3
1.853500E-7	3.759910E-3
1.854000E-7	3.665698E-3
1.854500E-7	3.554356E-3
1.855000E-7	3.477274E-3
1.855500E-7	3.391626E-3
1.856000E-7	3.271720E-3
1.856500E-7	3.134685E-3
1.857000E-7	3.066167E-3
1.857500E-7	3.031908E-3
1.858000E-7	3.023343E-3
1.858500E-7	2.997649E-3
1.859000E-7	3.006214E-3
1.859500E-7	3.143249E-3
1.860000E-7	3.331673E-3
1.860500E-7	3.451580E-3
1.861000E-7	3.528662E-3
1.861500E-7	3.691392E-3
1.862000E-7	3.854122E-3
1.862500E-7	3.974028E-3
1.863000E-7	4.068240E-3
1.863500E-7	4.102499E-3
1.864000E-7	4.042546E-3
1.864500E-7	3.965463E-3
1.865000E-7	3.896945E-3
1.865500E-7	3.802733E-3
1.866000E-7	3.665698E-3
1.866500E-7	3.485838E-3
1.867000E-7	3.305979E-3
1.867500E-7	3.177508E-3
1.868000E-7	3.108990E-3
1.868500E-7	3.049037E-3
1.869000E-7	3.031908E-3
1.869500E-7	3.108990E-3
1.870000E-7	3.186073E-3
1.870500E-7	3.220332E-3
1.871000E-7	3.271720E-3
1.871500E-7	3.383062E-3
1.872000E-7	3.468709E-3
1.872500E-7	3.520097E-3
1.873000E-7	3.554356E-3
1.873500E-7	3.571486E-3
1.874000E-7	3.588615E-3
1.874500E-7	3.622874E-3
1.875000E-7	3.631439E-3
1.875500E-7	3.631439E-3
1.876000E-7	3.648568E-3
1.876500E-7	3.648568E-3
1.877000E-7	3.605745E-3
1.877500E-7	3.597180E-3
1.878000E-7	3.571486E-3
1.878500E-7	3.485838E-3
1.879000E-7	3.374497E-3
1.879500E-7	3.314544E-3
1.880000E-7	3.228897E-3
1.880500E-7	3.100426E-3
1.881000E-7	3.083296E-3
1.881500E-7	3.160379E-3
1.882000E-7	3.160379E-3
1.882500E-7	3.151814E-3
1.883000E-7	3.254591E-3
1.883500E-7	3.365932E-3
1.884000E-7	3.425885E-3
1.884500E-7	3.485838E-3
1.885000E-7	3.545792E-3
1.885500E-7	3.528662E-3
1.886000E-7	3.485838E-3
1.886500E-7	3.451580E-3
1.887000E-7	3.357367E-3
1.887500E-7	3.263155E-3
1.888000E-7	3.203202E-3
1.888500E-7	3.134685E-3
1.889000E-7	3.091861E-3
1.889500E-7	3.151814E-3
1.890000E-7	3.263155E-3
1.890500E-7	3.331673E-3
1.891000E-7	3.451580E-3
1.891500E-7	3.657133E-3
1.892000E-7	3.811298E-3
1.892500E-7	3.896945E-3
1.893000E-7	3.982593E-3
1.893500E-7	4.033981E-3
1.894000E-7	3.999722E-3
1.894500E-7	3.879816E-3
1.895000E-7	3.699957E-3
1.895500E-7	3.511533E-3
1.896000E-7	3.365932E-3
1.896500E-7	3.194638E-3
1.897000E-7	3.006214E-3
1.897500E-7	2.886307E-3
1.898000E-7	2.843484E-3
1.898500E-7	2.843484E-3
1.899000E-7	2.894872E-3
1.899500E-7	2.963390E-3
1.900000E-7	3.023343E-3
1.900500E-7	3.091861E-3
1.901000E-7	3.168943E-3
1.901500E-7	3.211767E-3
1.902000E-7	3.211767E-3
1.902500E-7	3.177508E-3
1.903000E-7	3.091861E-3
1.903500E-7	2.980519E-3
1.904000E-7	2.912002E-3
1.904500E-7	2.894872E-3
1.905000E-7	2.877743E-3
1.905500E-7	2.826354E-3
1.906000E-7	2.757836E-3
1.906500E-7	2.706448E-3
1.907000E-7	2.723577E-3
1.907500E-7	2.809225E-3
1.908000E-7	2.869178E-3
1.908500E-7	2.877743E-3
1.909000E-7	2.852048E-3
1.909500E-7	2.877743E-3
1.910000E-7	2.894872E-3
1.910500E-7	2.877743E-3
1.911000E-7	2.869178E-3
1.911500E-7	2.946260E-3
1.912000E-7	3.057602E-3
1.912500E-7	3.100426E-3
1.913000E-7	3.143249E-3
1.913500E-7	3.228897E-3
1.914000E-7	3.288850E-3
1.914500E-7	3.297414E-3
1.915000E-7	3.297414E-3
1.915500E-7	3.288850E-3
1.916000E-7	3.254591E-3
1.916500E-7	3.228897E-3
1.917000E-7	3.254591E-3
1.917500E-7	3.297414E-3
1.918000E-7	3.348803E-3
1.918500E-7	3.425885E-3
1.919000E-7	3.528662E-3
1.919500E-7	3.648568E-3
1.920000E-7	3.751345E-3
1.920500E-7	3.794169E-3
1.921000E-7	3.751345E-3
1.921500E-7	3.717086E-3
1.922000E-7	3.631439E-3
1.922500E-7	3.451580E-3
1.923000E-7	3.203202E-3
1.923500E-7	2.980519E-3
1.924000E-7	2.723577E-3
1.924500E-7	2.415247E-3
1.925000E-7	2.252517E-3
1.925500E-7	2.235388E-3
1.926000E-7	2.218258E-3
1.926500E-7	2.184000E-3
1.927000E-7	2.269647E-3
1.927500E-7	2.458071E-3
1.928000E-7	2.620801E-3
1.928500E-7	2.732142E-3
1.929000E-7	2.817790E-3
1.929500E-7	2.903437E-3
1.930000E-7	2.963390E-3
1.930500E-7	2.980519E-3
1.931000E-7	2.937696E-3
1.931500E-7	2.877743E-3
1.932000E-7	2.774966E-3
1.932500E-7	2.663624E-3
1.933000E-7	2.612236E-3
1.933500E-7	2.612236E-3
1.934000E-7	2.595107E-3
1.934500E-7	2.569412E-3
1.935000E-7	2.603671E-3
1.935500E-7	2.672189E-3
1.936000E-7	2.672189E-3
1.936500E-7	2.646495E-3
1.937000E-7	2.655060E-3
1.937500E-7	2.672189E-3
1.938000E-7	2.612236E-3
1.938500E-7	2.518024E-3
1.939000E-7	2.492330E-3
1.939500E-7	2.466636E-3
1.940000E-7	2.372424E-3
1.940500E-7	2.218258E-3
1.941000E-7	2.132611E-3
1.941500E-7	2.141176E-3
1.942000E-7	2.158305E-3
1.942500E-7	2.166870E-3
1.943000E-7	2.235388E-3
1.943500E-7	2.355294E-3
1.944000E-7	2.500895E-3
1.944500E-7	2.646495E-3
1.945000E-7	2.809225E-3
1.945500E-7	2.912002E-3
1.946000E-7	2.963390E-3
1.946500E-7	2.989084E-3
1.947000E-7	2.997649E-3
1.947500E-7	2.997649E-3
1.948000E-7	2.937696E-3
1.948500E-7	2.792095E-3
1.949000E-7	2.689319E-3
1.949500E-7	2.715013E-3
1.950000E-7	2.732142E-3
1.950500E-7	2.715013E-3
1.951000E-7	2.766401E-3
1.951500E-7	2.886307E-3
1.952000E-7	2.997649E-3
1.952500E-7	3.074731E-3
1.953000E-7	3.117555E-3
1.953500E-7	3.100426E-3
1.954000E-7	3.049037E-3
1.954500E-7	2.937696E-3
1.955000E-7	2.774966E-3
1.955500E-7	2.637930E-3
1.956000E-7	2.492330E-3
1.956500E-7	2.312470E-3
1.957000E-7	2.141176E-3
1.957500E-7	2.064093E-3
1.958000E-7	2.012705E-3
1.958500E-7	1.935622E-3
1.959000E-7	1.901363E-3
1.959500E-7	1.978446E-3
1.960000E-7	2.098352E-3
1.960500E-7	2.209694E-3
1.961000E-7	2.312470E-3
1.961500E-7	2.458071E-3
1.962000E-7	2.612236E-3
1.962500E-7	2.706448E-3
1.963000E-7	2.757836E-3
1.963500E-7	2.834919E-3
1.964000E-7	2.912002E-3
1.964500E-7	2.903437E-3
1.965000E-7	2.860613E-3
1.965500E-7	2.826354E-3
1.966000E-7	2.740707E-3
1.966500E-7	2.637930E-3
1.967000E-7	2.612236E-3
1.967500E-7	2.629365E-3
1.968000E-7	2.595107E-3
1.968500E-7	2.543718E-3
1.969000E-7	2.560848E-3
1.969500E-7	2.646495E-3
1.970000E-7	2.672189E-3
1.970500E-7	2.680754E-3
1.971000E-7	2.732142E-3
1.971500E-7	2.800660E-3
1.972000E-7	2.826354E-3
1.972500E-7	2.826354E-3
1.973000E-7	2.783531E-3
1.973500E-7	2.706448E-3
1.974000E-7	2.655060E-3
1.974500E-7	2.595107E-3
1.975000E-7	2.509459E-3
1.975500E-7	2.432377E-3
1.976000E-7	2.398118E-3
1.976500E-7	2.329600E-3
1.977000E-7	2.243953E-3
1.977500E-7	2.243953E-3
1.978000E-7	2.243953E-3
1.978500E-7	2.218258E-3
1.979000E-7	2.235388E-3
1.979500E-7	2.286776E-3
1.980000E-7	2.312470E-3
1.980500E-7	2.355294E-3
1.981000E-7	2.406682E-3
1.981500E-7	2.440941E-3
1.982000E-7	2.492330E-3
1.982500E-7	2.543718E-3
1.983000E-7	2.560848E-3
1.983500E-7	2.526589E-3
1.984000E-7	2.492330E-3
1.984500E-7	2.380988E-3
1.985000E-7	2.261082E-3
1.985500E-7	2.218258E-3
1.986000E-7	2.184000E-3
1.986500E-7	2.124046E-3
1.987000E-7	2.115482E-3
1.987500E-7	2.201129E-3
1.988000E-7	2.252517E-3
1.988500E-7	2.303906E-3
1.989000E-7	2.440941E-3
1.989500E-7	2.586542E-3
1.990000E-7	2.723577E-3
1.990500E-7	2.826354E-3
1.991000E-7	2.920566E-3
1.991500E-7	2.980519E-3
1.992000E-7	3.023343E-3
1.992500E-7	3.057602E-3
1.993000E-7	3.040472E-3
1.993500E-7	2.989084E-3
1.994000E-7	2.954825E-3
1.994500E-7	2.980519E-3
1.995000E-7	2.989084E-3
1.995500E-7	2.954825E-3
1.996000E-7	2.963390E-3
1.996500E-7	3.074731E-3
1.997000E-7	3.211767E-3
1.997500E-7	3.305979E-3
1.998000E-7	3.357367E-3
1.998500E-7	3.408756E-3
1.999000E-7	3.443015E-3
1.999500E-7	3.477274E-3
2.000000E-7	3.494403E-3
