Study Name	0404W
Sample Name	2024-01-11
Run Name	spot00
Operator	Elena
Date	1/11/2024
Time	16:35
Sign	FIX
Grating Spacing	03.40um
Channel	3
Number Traces	10000
Files in Batch	1
Batch Number	42
dt	50.000001E-12
time stamp (ms)	5:17:52 PM
	
Time	Amplitude
0.000000E+0	2.089787E-3
5.000000E-11	2.106917E-3
1.000000E-10	2.192564E-3
1.500000E-10	2.218258E-3
2.000000E-10	2.192564E-3
2.500000E-10	2.243953E-3
3.000000E-10	2.363859E-3
3.500000E-10	2.466636E-3
4.000000E-10	2.500895E-3
4.500000E-10	2.552283E-3
5.000000E-10	2.620801E-3
5.500000E-10	2.689319E-3
6.000000E-10	2.715013E-3
6.500000E-10	2.792095E-3
7.000000E-10	2.920566E-3
7.500000E-10	3.023343E-3
8.000000E-10	3.066167E-3
8.500000E-10	3.091861E-3
9.000000E-10	3.134685E-3
9.500000E-10	3.143249E-3
1.000000E-9	3.117555E-3
1.050000E-9	3.057602E-3
1.100000E-9	2.971955E-3
1.150000E-9	2.912002E-3
1.200000E-9	2.843484E-3
1.250000E-9	2.749272E-3
1.300000E-9	2.646495E-3
1.350000E-9	2.595107E-3
1.400000E-9	2.560848E-3
1.450000E-9	2.466636E-3
1.500000E-9	2.398118E-3
1.550000E-9	2.432377E-3
1.600000E-9	2.423812E-3
1.650000E-9	2.389553E-3
1.700000E-9	2.458071E-3
1.750000E-9	2.569412E-3
1.800000E-9	2.629365E-3
1.850000E-9	2.680754E-3
1.900000E-9	2.826354E-3
1.950000E-9	2.971955E-3
2.000000E-9	3.066167E-3
2.050000E-9	3.211767E-3
2.100000E-9	3.383062E-3
2.150000E-9	3.434450E-3
2.200000E-9	3.374497E-3
2.250000E-9	3.271720E-3
2.300000E-9	3.117555E-3
2.350000E-9	2.894872E-3
2.400000E-9	2.612236E-3
2.450000E-9	2.355294E-3
2.500000E-9	2.141176E-3
2.550000E-9	1.978446E-3
2.600000E-9	1.832846E-3
2.650000E-9	1.772892E-3
2.700000E-9	1.867105E-3
2.750000E-9	2.038399E-3
2.800000E-9	2.184000E-3
2.850000E-9	2.329600E-3
2.900000E-9	2.483765E-3
2.950000E-9	2.663624E-3
3.000000E-9	2.774966E-3
3.050000E-9	2.826354E-3
3.100000E-9	2.860613E-3
3.150000E-9	2.912002E-3
3.200000E-9	2.843484E-3
3.250000E-9	2.689319E-3
3.300000E-9	2.577977E-3
3.350000E-9	2.586542E-3
3.400000E-9	2.526589E-3
3.450000E-9	2.449506E-3
3.500000E-9	2.466636E-3
3.550000E-9	2.526589E-3
3.600000E-9	2.552283E-3
3.650000E-9	2.560848E-3
3.700000E-9	2.595107E-3
3.750000E-9	2.612236E-3
3.800000E-9	2.620801E-3
3.850000E-9	2.603671E-3
3.900000E-9	2.560848E-3
3.950000E-9	2.535153E-3
4.000000E-9	2.560848E-3
4.050000E-9	2.612236E-3
4.100000E-9	2.663624E-3
4.150000E-9	2.706448E-3
4.200000E-9	2.732142E-3
4.250000E-9	2.706448E-3
4.300000E-9	2.680754E-3
4.350000E-9	2.680754E-3
4.400000E-9	2.646495E-3
4.450000E-9	2.612236E-3
4.500000E-9	2.612236E-3
4.550000E-9	2.603671E-3
4.600000E-9	2.518024E-3
4.650000E-9	2.398118E-3
4.700000E-9	2.312470E-3
4.750000E-9	2.243953E-3
4.800000E-9	2.158305E-3
4.850000E-9	2.081223E-3
4.900000E-9	2.055529E-3
4.950000E-9	2.089787E-3
5.000000E-9	2.089787E-3
5.050000E-9	2.081223E-3
5.100000E-9	2.158305E-3
5.150000E-9	2.329600E-3
5.200000E-9	2.440941E-3
5.250000E-9	2.569412E-3
5.300000E-9	2.749272E-3
5.350000E-9	2.894872E-3
5.400000E-9	2.946260E-3
5.450000E-9	2.989084E-3
5.500000E-9	3.049037E-3
5.550000E-9	3.040472E-3
5.600000E-9	3.023343E-3
5.650000E-9	3.006214E-3
5.700000E-9	2.937696E-3
5.750000E-9	2.852048E-3
5.800000E-9	2.792095E-3
5.850000E-9	2.715013E-3
5.900000E-9	2.637930E-3
5.950000E-9	2.620801E-3
6.000000E-9	2.680754E-3
6.050000E-9	2.757836E-3
6.100000E-9	2.852048E-3
6.150000E-9	2.989084E-3
6.200000E-9	3.074731E-3
6.250000E-9	3.108990E-3
6.300000E-9	3.186073E-3
6.350000E-9	3.254591E-3
6.400000E-9	3.220332E-3
6.450000E-9	3.108990E-3
6.500000E-9	3.031908E-3
6.550000E-9	2.937696E-3
6.600000E-9	2.757836E-3
6.650000E-9	2.586542E-3
6.700000E-9	2.475200E-3
6.750000E-9	2.380988E-3
6.800000E-9	2.269647E-3
6.850000E-9	2.184000E-3
6.900000E-9	2.158305E-3
6.950000E-9	2.184000E-3
7.000000E-9	2.226823E-3
7.050000E-9	2.295341E-3
7.100000E-9	2.415247E-3
7.150000E-9	2.560848E-3
7.200000E-9	2.663624E-3
7.250000E-9	2.749272E-3
7.300000E-9	2.912002E-3
7.350000E-9	3.066167E-3
7.400000E-9	3.126120E-3
7.450000E-9	3.126120E-3
7.500000E-9	3.126120E-3
7.550000E-9	3.108990E-3
7.600000E-9	3.040472E-3
7.650000E-9	2.920566E-3
7.700000E-9	2.809225E-3
7.750000E-9	2.757836E-3
7.800000E-9	2.723577E-3
7.850000E-9	2.637930E-3
7.900000E-9	2.552283E-3
7.950000E-9	2.500895E-3
8.000000E-9	2.432377E-3
8.050000E-9	2.380988E-3
8.100000E-9	2.389553E-3
8.150000E-9	2.398118E-3
8.200000E-9	2.398118E-3
8.250000E-9	2.398118E-3
8.300000E-9	2.423812E-3
8.350000E-9	2.492330E-3
8.400000E-9	2.543718E-3
8.450000E-9	2.526589E-3
8.500000E-9	2.526589E-3
8.550000E-9	2.663624E-3
8.600000E-9	2.809225E-3
8.650000E-9	2.834919E-3
8.700000E-9	2.843484E-3
8.750000E-9	2.929131E-3
8.800000E-9	2.937696E-3
8.850000E-9	2.869178E-3
8.900000E-9	2.860613E-3
8.950000E-9	2.834919E-3
9.000000E-9	2.689319E-3
9.050000E-9	2.586542E-3
9.100000E-9	2.569412E-3
9.150000E-9	2.500895E-3
9.200000E-9	2.440941E-3
9.250000E-9	2.466636E-3
9.300000E-9	2.475200E-3
9.350000E-9	2.458071E-3
9.400000E-9	2.509459E-3
9.450000E-9	2.569412E-3
9.500000E-9	2.603671E-3
9.550000E-9	2.672189E-3
9.600000E-9	2.792095E-3
9.650000E-9	2.826354E-3
9.700000E-9	2.834919E-3
9.750000E-9	2.877743E-3
9.800000E-9	2.894872E-3
9.850000E-9	2.869178E-3
9.900000E-9	2.946260E-3
9.950000E-9	3.014778E-3
1.000000E-8	2.963390E-3
1.005000E-8	2.877743E-3
1.010000E-8	2.843484E-3
1.015000E-8	2.757836E-3
1.020000E-8	2.595107E-3
1.025000E-8	2.492330E-3
1.030000E-8	2.432377E-3
1.035000E-8	2.363859E-3
1.040000E-8	2.329600E-3
1.045000E-8	2.321035E-3
1.050000E-8	2.338165E-3
1.055000E-8	2.398118E-3
1.060000E-8	2.483765E-3
1.065000E-8	2.535153E-3
1.070000E-8	2.629365E-3
1.075000E-8	2.766401E-3
1.080000E-8	2.843484E-3
1.085000E-8	2.869178E-3
1.090000E-8	2.903437E-3
1.095000E-8	2.903437E-3
1.100000E-8	2.809225E-3
1.105000E-8	2.637930E-3
1.110000E-8	2.449506E-3
1.115000E-8	2.278212E-3
1.120000E-8	2.098352E-3
1.125000E-8	1.935622E-3
1.130000E-8	1.824281E-3
1.135000E-8	1.790022E-3
1.140000E-8	1.781457E-3
1.145000E-8	1.807151E-3
1.150000E-8	1.918493E-3
1.155000E-8	2.089787E-3
1.160000E-8	2.269647E-3
1.165000E-8	2.500895E-3
1.170000E-8	2.774966E-3
1.175000E-8	3.023343E-3
1.180000E-8	3.160379E-3
1.185000E-8	3.228897E-3
1.190000E-8	3.263155E-3
1.195000E-8	3.357367E-3
1.200000E-8	3.451580E-3
1.205000E-8	3.520097E-3
1.210000E-8	3.691392E-3
1.215000E-8	4.076805E-3
1.220000E-8	4.727724E-3
1.225000E-8	5.755492E-3
1.230000E-8	7.348532E-3
1.235000E-8	9.746656E-3
1.240000E-8	1.314685E-2
1.245000E-8	1.768616E-2
1.250000E-8	2.348448E-2
1.255000E-8	3.071311E-2
1.260000E-8	3.944057E-2
1.265000E-8	4.958978E-2
1.270000E-8	6.101513E-2
1.275000E-8	7.351107E-2
1.280000E-8	8.672645E-2
1.285000E-8	1.001988E-1
1.290000E-8	1.135512E-1
1.295000E-8	1.264240E-1
1.300000E-8	1.384831E-1
1.305000E-8	1.494460E-1
1.310000E-8	1.591841E-1
1.315000E-8	1.676289E-1
1.320000E-8	1.748061E-1
1.325000E-8	1.808100E-1
1.330000E-8	1.858118E-1
1.335000E-8	1.899571E-1
1.340000E-8	1.934173E-1
1.345000E-8	1.963721E-1
1.350000E-8	1.989330E-1
1.355000E-8	2.010998E-1
1.360000E-8	2.027186E-1
1.365000E-8	2.036436E-1
1.370000E-8	2.038149E-1
1.375000E-8	2.031383E-1
1.380000E-8	2.014167E-1
1.385000E-8	1.985219E-1
1.390000E-8	1.945307E-1
1.395000E-8	1.895032E-1
1.400000E-8	1.834736E-1
1.405000E-8	1.767161E-1
1.410000E-8	1.696502E-1
1.415000E-8	1.625243E-1
1.420000E-8	1.555269E-1
1.425000E-8	1.490777E-1
1.430000E-8	1.434507E-1
1.435000E-8	1.387229E-1
1.440000E-8	1.349887E-1
1.445000E-8	1.322737E-1
1.450000E-8	1.305265E-1
1.455000E-8	1.296957E-1
1.460000E-8	1.296443E-1
1.465000E-8	1.301496E-1
1.470000E-8	1.311774E-1
1.475000E-8	1.327105E-1
1.480000E-8	1.344919E-1
1.485000E-8	1.364019E-1
1.490000E-8	1.385945E-1
1.495000E-8	1.410697E-1
1.500000E-8	1.436819E-1
1.505000E-8	1.465340E-1
1.510000E-8	1.496087E-1
1.515000E-8	1.527006E-1
1.520000E-8	1.557153E-1
1.525000E-8	1.586445E-1
1.530000E-8	1.613766E-1
1.535000E-8	1.637319E-1
1.540000E-8	1.655905E-1
1.545000E-8	1.667467E-1
1.550000E-8	1.671150E-1
1.555000E-8	1.667810E-1
1.560000E-8	1.656676E-1
1.565000E-8	1.636805E-1
1.570000E-8	1.609570E-1
1.575000E-8	1.576595E-1
1.580000E-8	1.537883E-1
1.585000E-8	1.494888E-1
1.590000E-8	1.450694E-1
1.595000E-8	1.405643E-1
1.600000E-8	1.360165E-1
1.605000E-8	1.316399E-1
1.610000E-8	1.276573E-1
1.615000E-8	1.240601E-1
1.620000E-8	1.208912E-1
1.625000E-8	1.182447E-1
1.630000E-8	1.161720E-1
1.635000E-8	1.147074E-1
1.640000E-8	1.138509E-1
1.645000E-8	1.135169E-1
1.650000E-8	1.137824E-1
1.655000E-8	1.147245E-1
1.660000E-8	1.162148E-1
1.665000E-8	1.181333E-1
1.670000E-8	1.205828E-1
1.675000E-8	1.234691E-1
1.680000E-8	1.265781E-1
1.685000E-8	1.299013E-1
1.690000E-8	1.333957E-1
1.695000E-8	1.367959E-1
1.700000E-8	1.399220E-1
1.705000E-8	1.428511E-1
1.710000E-8	1.454719E-1
1.715000E-8	1.475874E-1
1.720000E-8	1.491205E-1
1.725000E-8	1.499941E-1
1.730000E-8	1.501825E-1
1.735000E-8	1.497543E-1
1.740000E-8	1.487180E-1
1.745000E-8	1.469965E-1
1.750000E-8	1.447439E-1
1.755000E-8	1.421060E-1
1.760000E-8	1.390569E-1
1.765000E-8	1.356311E-1
1.770000E-8	1.320424E-1
1.775000E-8	1.283682E-1
1.780000E-8	1.246082E-1
1.785000E-8	1.209511E-1
1.790000E-8	1.175252E-1
1.795000E-8	1.143049E-1
1.800000E-8	1.113586E-1
1.805000E-8	1.087806E-1
1.810000E-8	1.065624E-1
1.815000E-8	1.047209E-1
1.820000E-8	1.033249E-1
1.825000E-8	1.024170E-1
1.830000E-8	1.020744E-1
1.835000E-8	1.023399E-1
1.840000E-8	1.031365E-1
1.845000E-8	1.044040E-1
1.850000E-8	1.062797E-1
1.855000E-8	1.087806E-1
1.860000E-8	1.116926E-1
1.865000E-8	1.149301E-1
1.870000E-8	1.185444E-1
1.875000E-8	1.223814E-1
1.880000E-8	1.262270E-1
1.885000E-8	1.299526E-1
1.890000E-8	1.334984E-1
1.895000E-8	1.367359E-1
1.900000E-8	1.394252E-1
1.905000E-8	1.413694E-1
1.910000E-8	1.426113E-1
1.915000E-8	1.431595E-1
1.920000E-8	1.428597E-1
1.925000E-8	1.416521E-1
1.930000E-8	1.396308E-1
1.935000E-8	1.368558E-1
1.940000E-8	1.332843E-1
1.945000E-8	1.291133E-1
1.950000E-8	1.245826E-1
1.955000E-8	1.197863E-1
1.960000E-8	1.148102E-1
1.965000E-8	1.098683E-1
1.970000E-8	1.051406E-1
1.975000E-8	1.007812E-1
1.980000E-8	9.694417E-2
1.985000E-8	9.374096E-2
1.990000E-8	9.124862E-2
1.995000E-8	8.959563E-2
2.000000E-8	8.879055E-2
2.005000E-8	8.873059E-2
2.010000E-8	8.943290E-2
2.015000E-8	9.094886E-2
2.020000E-8	9.316712E-2
2.025000E-8	9.592497E-2
2.030000E-8	9.919669E-2
2.035000E-8	1.028795E-1
2.040000E-8	1.068107E-1
2.045000E-8	1.109132E-1
2.050000E-8	1.151357E-1
2.055000E-8	1.193238E-1
2.060000E-8	1.233235E-1
2.065000E-8	1.270149E-1
2.070000E-8	1.303466E-1
2.075000E-8	1.331987E-1
2.080000E-8	1.353484E-1
2.085000E-8	1.366331E-1
2.090000E-8	1.370357E-1
2.095000E-8	1.365646E-1
2.100000E-8	1.350829E-1
2.105000E-8	1.325820E-1
2.110000E-8	1.291647E-1
2.115000E-8	1.249765E-1
2.120000E-8	1.201203E-1
2.125000E-8	1.148188E-1
2.130000E-8	1.093288E-1
2.135000E-8	1.038131E-1
2.140000E-8	9.847726E-2
2.145000E-8	9.359536E-2
2.150000E-8	8.933869E-2
2.155000E-8	8.583572E-2
2.160000E-8	8.318065E-2
2.165000E-8	8.140775E-2
2.170000E-8	8.049132E-2
2.175000E-8	8.043994E-2
2.180000E-8	8.121076E-2
2.185000E-8	8.273528E-2
2.190000E-8	8.488503E-2
2.195000E-8	8.753153E-2
2.200000E-8	9.057201E-2
2.205000E-8	9.393795E-2
2.210000E-8	9.750944E-2
2.215000E-8	1.011238E-1
2.220000E-8	1.047295E-1
2.225000E-8	1.083010E-1
2.230000E-8	1.117697E-1
2.235000E-8	1.150329E-1
2.240000E-8	1.179791E-1
2.245000E-8	1.205486E-1
2.250000E-8	1.227240E-1
2.255000E-8	1.244798E-1
2.260000E-8	1.255846E-1
2.265000E-8	1.259529E-1
2.270000E-8	1.256788E-1
2.275000E-8	1.246939E-1
2.280000E-8	1.228953E-1
2.285000E-8	1.203601E-1
2.290000E-8	1.171484E-1
2.295000E-8	1.133199E-1
2.300000E-8	1.089947E-1
2.305000E-8	1.043955E-1
2.310000E-8	9.965062E-2
2.315000E-8	9.492289E-2
2.320000E-8	9.044354E-2
2.325000E-8	8.642668E-2
2.330000E-8	8.300079E-2
2.335000E-8	8.022582E-2
2.340000E-8	7.821311E-2
2.345000E-8	7.698835E-2
2.350000E-8	7.660294E-2
2.355000E-8	7.704830E-2
2.360000E-8	7.817028E-2
2.365000E-8	7.986610E-2
2.370000E-8	8.209293E-2
2.375000E-8	8.478225E-2
2.380000E-8	8.771996E-2
2.385000E-8	9.077756E-2
2.390000E-8	9.392939E-2
2.395000E-8	9.705551E-2
2.400000E-8	1.000532E-1
2.405000E-8	1.029052E-1
2.410000E-8	1.055774E-1
2.415000E-8	1.079327E-1
2.420000E-8	1.099026E-1
2.425000E-8	1.114956E-1
2.430000E-8	1.127461E-1
2.435000E-8	1.135940E-1
2.440000E-8	1.138766E-1
2.445000E-8	1.135597E-1
2.450000E-8	1.127461E-1
2.455000E-8	1.114785E-1
2.460000E-8	1.096285E-1
2.465000E-8	1.073075E-1
2.470000E-8	1.047038E-1
2.475000E-8	1.018603E-1
2.480000E-8	9.875133E-2
2.485000E-8	9.549673E-2
2.490000E-8	9.234491E-2
2.495000E-8	8.931300E-2
2.500000E-8	8.639242E-2
2.505000E-8	8.366884E-2
2.510000E-8	8.129641E-2
2.515000E-8	7.927513E-2
2.520000E-8	7.757075E-2
2.525000E-8	7.629461E-2
2.530000E-8	7.555804E-2
2.535000E-8	7.526684E-2
2.540000E-8	7.531823E-2
2.545000E-8	7.574646E-2
2.550000E-8	7.665433E-2
2.555000E-8	7.803325E-2
2.560000E-8	7.978045E-2
2.565000E-8	8.180173E-2
2.570000E-8	8.411420E-2
2.575000E-8	8.672645E-2
2.580000E-8	8.947573E-2
2.585000E-8	9.226783E-2
2.590000E-8	9.519697E-2
2.595000E-8	9.818606E-2
2.600000E-8	1.009096E-1
2.605000E-8	1.032992E-1
2.610000E-8	1.055689E-1
2.615000E-8	1.075302E-1
2.620000E-8	1.088149E-1
2.625000E-8	1.094487E-1
2.630000E-8	1.096285E-1
2.635000E-8	1.091832E-1
2.640000E-8	1.079841E-1
2.645000E-8	1.060827E-1
2.650000E-8	1.035561E-1
2.655000E-8	1.004386E-1
2.660000E-8	9.683283E-2
2.665000E-8	9.291018E-2
2.670000E-8	8.882481E-2
2.675000E-8	8.466235E-2
2.680000E-8	8.061979E-2
2.685000E-8	7.691983E-2
2.690000E-8	7.369093E-2
2.695000E-8	7.096734E-2
2.700000E-8	6.876621E-2
2.705000E-8	6.720743E-2
2.710000E-8	6.638521E-2
2.715000E-8	6.623961E-2
2.720000E-8	6.662503E-2
2.725000E-8	6.747293E-2
2.730000E-8	6.880903E-2
2.735000E-8	7.062476E-2
2.740000E-8	7.280876E-2
2.745000E-8	7.530966E-2
2.750000E-8	7.816172E-2
2.755000E-8	8.128784E-2
2.760000E-8	8.455101E-2
2.765000E-8	8.798546E-2
2.770000E-8	9.160834E-2
2.775000E-8	9.516271E-2
2.780000E-8	9.842587E-2
2.785000E-8	1.013379E-1
2.790000E-8	1.039073E-1
2.795000E-8	1.059457E-1
2.800000E-8	1.071876E-1
2.805000E-8	1.075045E-1
2.810000E-8	1.069992E-1
2.815000E-8	1.056202E-1
2.820000E-8	1.033163E-1
2.825000E-8	1.001559E-1
2.830000E-8	9.637033E-2
2.835000E-8	9.209653E-2
2.840000E-8	8.747158E-2
2.845000E-8	8.273528E-2
2.850000E-8	7.812746E-2
2.855000E-8	7.381940E-2
2.860000E-8	6.994814E-2
2.865000E-8	6.665072E-2
2.870000E-8	6.399565E-2
2.875000E-8	6.199151E-2
2.880000E-8	6.068110E-2
2.885000E-8	6.009014E-2
2.890000E-8	6.016722E-2
2.895000E-8	6.085240E-2
2.900000E-8	6.204290E-2
2.905000E-8	6.370445E-2
2.910000E-8	6.583707E-2
2.915000E-8	6.833797E-2
2.920000E-8	7.112151E-2
2.925000E-8	7.414486E-2
2.930000E-8	7.742515E-2
2.935000E-8	8.084248E-2
2.940000E-8	8.427693E-2
2.945000E-8	8.768570E-2
2.950000E-8	9.107733E-2
2.955000E-8	9.427197E-2
2.960000E-8	9.701269E-2
2.965000E-8	9.922239E-2
2.970000E-8	1.009439E-1
2.975000E-8	1.020231E-1
2.980000E-8	1.023143E-1
2.985000E-8	1.018089E-1
2.990000E-8	1.005585E-1
2.995000E-8	9.852864E-2
3.000000E-8	9.573654E-2
3.005000E-8	9.231922E-2
3.010000E-8	8.848222E-2
3.015000E-8	8.438828E-2
3.020000E-8	8.007165E-2
3.025000E-8	7.568651E-2
3.030000E-8	7.150692E-2
3.035000E-8	6.772131E-2
3.040000E-8	6.436394E-2
3.045000E-8	6.150332E-2
3.050000E-8	5.932788E-2
3.055000E-8	5.787187E-2
3.060000E-8	5.708392E-2
3.065000E-8	5.699827E-2
3.070000E-8	5.765775E-2
3.075000E-8	5.893390E-2
3.080000E-8	6.069823E-2
3.085000E-8	6.291650E-2
3.090000E-8	6.553731E-2
3.095000E-8	6.845788E-2
3.100000E-8	7.154975E-2
3.105000E-8	7.471870E-2
3.110000E-8	7.789621E-2
3.115000E-8	8.102234E-2
3.120000E-8	8.397717E-2
3.125000E-8	8.664936E-2
3.130000E-8	8.897897E-2
3.135000E-8	9.094029E-2
3.140000E-8	9.245625E-2
3.145000E-8	9.343263E-2
3.150000E-8	9.389513E-2
3.155000E-8	9.388656E-2
3.160000E-8	9.330416E-2
3.165000E-8	9.207084E-2
3.170000E-8	9.033220E-2
3.175000E-8	8.824240E-2
3.180000E-8	8.578433E-2
3.185000E-8	8.299223E-2
3.190000E-8	8.004596E-2
3.195000E-8	7.698835E-2
3.200000E-8	7.387079E-2
3.205000E-8	7.083031E-2
3.210000E-8	6.801251E-2
3.215000E-8	6.540027E-2
3.220000E-8	6.301928E-2
3.225000E-8	6.099800E-2
3.230000E-8	5.940496E-2
3.235000E-8	5.826585E-2
3.240000E-8	5.755498E-2
3.245000E-8	5.726378E-2
3.250000E-8	5.749502E-2
3.255000E-8	5.820590E-2
3.260000E-8	5.927649E-2
3.265000E-8	6.068967E-2
3.270000E-8	6.253965E-2
3.275000E-8	6.477504E-2
3.280000E-8	6.721599E-2
3.285000E-8	6.981967E-2
3.290000E-8	7.256895E-2
3.295000E-8	7.537818E-2
3.300000E-8	7.803325E-2
3.305000E-8	8.050845E-2
3.310000E-8	8.281237E-2
3.315000E-8	8.480795E-2
3.320000E-8	8.635816E-2
3.325000E-8	8.748871E-2
3.330000E-8	8.825097E-2
3.335000E-8	8.860212E-2
3.340000E-8	8.847365E-2
3.345000E-8	8.783130E-2
3.350000E-8	8.675214E-2
3.355000E-8	8.530470E-2
3.360000E-8	8.348041E-2
3.365000E-8	8.133923E-2
3.370000E-8	7.894111E-2
3.375000E-8	7.632030E-2
3.380000E-8	7.345112E-2
3.385000E-8	7.050485E-2
3.390000E-8	6.765279E-2
3.395000E-8	6.486926E-2
3.400000E-8	6.213711E-2
3.405000E-8	5.967047E-2
3.410000E-8	5.756354E-2
3.415000E-8	5.582490E-2
3.420000E-8	5.450593E-2
3.425000E-8	5.369228E-2
3.430000E-8	5.346104E-2
3.435000E-8	5.382932E-2
3.440000E-8	5.472862E-2
3.445000E-8	5.605615E-2
3.450000E-8	5.787187E-2
3.455000E-8	6.015009E-2
3.460000E-8	6.271951E-2
3.465000E-8	6.546879E-2
3.470000E-8	6.840649E-2
3.475000E-8	7.139558E-2
3.480000E-8	7.429902E-2
3.485000E-8	7.705687E-2
3.490000E-8	7.963485E-2
3.495000E-8	8.194733E-2
3.500000E-8	8.384870E-2
3.505000E-8	8.528757E-2
3.510000E-8	8.627252E-2
3.515000E-8	8.684635E-2
3.520000E-8	8.690631E-2
3.525000E-8	8.633247E-2
3.530000E-8	8.520193E-2
3.535000E-8	8.356606E-2
3.540000E-8	8.138206E-2
3.545000E-8	7.871842E-2
3.550000E-8	7.572933E-2
3.555000E-8	7.244904E-2
3.560000E-8	6.893750E-2
3.565000E-8	6.540883E-2
3.570000E-8	6.200864E-2
3.575000E-8	5.884825E-2
3.580000E-8	5.602189E-2
3.585000E-8	5.364090E-2
3.590000E-8	5.179091E-2
3.595000E-8	5.058329E-2
3.600000E-8	5.001802E-2
3.605000E-8	4.999232E-2
3.610000E-8	5.052333E-2
3.615000E-8	5.163675E-2
3.620000E-8	5.319553E-2
3.625000E-8	5.507121E-2
3.630000E-8	5.728947E-2
3.635000E-8	5.979037E-2
3.640000E-8	6.238549E-2
3.645000E-8	6.504055E-2
3.650000E-8	6.778983E-2
3.655000E-8	7.054767E-2
3.660000E-8	7.320274E-2
3.665000E-8	7.576359E-2
3.670000E-8	7.819598E-2
3.675000E-8	8.036285E-2
3.680000E-8	8.217858E-2
3.685000E-8	8.360889E-2
3.690000E-8	8.464522E-2
3.695000E-8	8.519336E-2
3.700000E-8	8.514197E-2
3.705000E-8	8.439684E-2
3.710000E-8	8.298366E-2
3.715000E-8	8.094525E-2
3.720000E-8	7.826449E-2
3.725000E-8	7.503559E-2
3.730000E-8	7.146410E-2
3.735000E-8	6.762710E-2
3.740000E-8	6.358455E-2
3.745000E-8	5.960195E-2
3.750000E-8	5.595337E-2
3.755000E-8	5.275016E-2
3.760000E-8	5.003514E-2
3.765000E-8	4.798817E-2
3.770000E-8	4.674629E-2
3.775000E-8	4.625810E-2
3.780000E-8	4.640370E-2
3.785000E-8	4.720878E-2
3.790000E-8	4.868192E-2
3.795000E-8	5.066893E-2
3.800000E-8	5.293859E-2
3.805000E-8	5.542236E-2
3.810000E-8	5.814594E-2
3.815000E-8	6.094661E-2
3.820000E-8	6.367019E-2
3.825000E-8	6.636808E-2
3.830000E-8	6.898889E-2
3.835000E-8	7.141271E-2
3.840000E-8	7.364810E-2
3.845000E-8	7.568651E-2
3.850000E-8	7.742515E-2
3.855000E-8	7.881264E-2
3.860000E-8	7.980615E-2
3.865000E-8	8.027721E-2
3.870000E-8	8.027721E-2
3.875000E-8	7.986610E-2
3.880000E-8	7.886403E-2
3.885000E-8	7.727955E-2
3.890000E-8	7.531823E-2
3.895000E-8	7.301431E-2
3.900000E-8	7.028217E-2
3.905000E-8	6.737016E-2
3.910000E-8	6.446671E-2
3.915000E-8	6.147762E-2
3.920000E-8	5.847140E-2
3.925000E-8	5.577351E-2
3.930000E-8	5.346104E-2
3.935000E-8	5.151684E-2
3.940000E-8	4.996663E-2
3.945000E-8	4.888747E-2
3.950000E-8	4.827938E-2
3.955000E-8	4.814234E-2
3.960000E-8	4.838215E-2
3.965000E-8	4.899881E-2
3.970000E-8	5.005227E-2
3.975000E-8	5.150828E-2
3.980000E-8	5.314414E-2
3.985000E-8	5.494274E-2
3.990000E-8	5.695545E-2
3.995000E-8	5.909663E-2
4.000000E-8	6.126351E-2
4.005000E-8	6.346464E-2
4.010000E-8	6.566578E-2
4.015000E-8	6.773844E-2
4.020000E-8	6.963981E-2
4.025000E-8	7.129280E-2
4.030000E-8	7.270598E-2
4.035000E-8	7.384509E-2
4.040000E-8	7.465018E-2
4.045000E-8	7.501846E-2
4.050000E-8	7.495851E-2
4.055000E-8	7.459879E-2
4.060000E-8	7.388792E-2
4.065000E-8	7.277450E-2
4.070000E-8	7.130993E-2
4.075000E-8	6.956273E-2
4.080000E-8	6.756715E-2
4.085000E-8	6.537458E-2
4.090000E-8	6.308779E-2
4.095000E-8	6.068110E-2
4.100000E-8	5.821446E-2
4.105000E-8	5.586773E-2
4.110000E-8	5.370941E-2
4.115000E-8	5.170527E-2
4.120000E-8	4.995806E-2
4.125000E-8	4.857058E-2
4.130000E-8	4.754281E-2
4.135000E-8	4.686619E-2
4.140000E-8	4.657499E-2
4.145000E-8	4.668634E-2
4.150000E-8	4.722591E-2
4.155000E-8	4.815947E-2
4.160000E-8	4.934997E-2
4.165000E-8	5.082310E-2
4.170000E-8	5.264739E-2
4.175000E-8	5.471149E-2
4.180000E-8	5.686123E-2
4.185000E-8	5.913089E-2
4.190000E-8	6.151188E-2
4.195000E-8	6.380723E-2
4.200000E-8	6.596554E-2
4.205000E-8	6.801251E-2
4.210000E-8	6.984536E-2
4.215000E-8	7.135276E-2
4.220000E-8	7.246617E-2
4.225000E-8	7.315135E-2
4.230000E-8	7.339116E-2
4.235000E-8	7.314279E-2
4.240000E-8	7.236340E-2
4.245000E-8	7.107012E-2
4.250000E-8	6.934861E-2
4.255000E-8	6.724169E-2
4.260000E-8	6.480930E-2
4.265000E-8	6.221419E-2
4.270000E-8	5.954199E-2
4.275000E-8	5.682698E-2
4.280000E-8	5.416334E-2
4.285000E-8	5.170527E-2
4.290000E-8	4.951270E-2
4.295000E-8	4.761133E-2
4.300000E-8	4.606111E-2
4.305000E-8	4.487918E-2
4.310000E-8	4.412548E-2
4.315000E-8	4.380002E-2
4.320000E-8	4.383428E-2
4.325000E-8	4.420256E-2
4.330000E-8	4.496482E-2
4.335000E-8	4.606967E-2
4.340000E-8	4.742290E-2
4.345000E-8	4.902451E-2
4.350000E-8	5.092588E-2
4.355000E-8	5.299854E-2
4.360000E-8	5.512259E-2
4.365000E-8	5.730660E-2
4.370000E-8	5.956769E-2
4.375000E-8	6.176882E-2
4.380000E-8	6.383292E-2
4.385000E-8	6.575999E-2
4.390000E-8	6.749863E-2
4.395000E-8	6.894607E-2
4.400000E-8	7.003379E-2
4.405000E-8	7.077892E-2
4.410000E-8	7.112151E-2
4.415000E-8	7.099304E-2
4.420000E-8	7.028217E-2
4.425000E-8	6.909167E-2
4.430000E-8	6.749006E-2
4.435000E-8	6.543453E-2
4.440000E-8	6.287367E-2
4.445000E-8	6.000449E-2
4.450000E-8	5.704966E-2
4.455000E-8	5.402631E-2
4.460000E-8	5.090018E-2
4.465000E-8	4.788540E-2
4.470000E-8	4.524746E-2
4.475000E-8	4.308915E-2
4.480000E-8	4.136764E-2
4.485000E-8	4.016001E-2
4.490000E-8	3.963756E-2
4.495000E-8	3.968895E-2
4.500000E-8	4.020284E-2
4.505000E-8	4.127343E-2
4.510000E-8	4.288360E-2
4.515000E-8	4.484492E-2
4.520000E-8	4.704605E-2
4.525000E-8	4.943561E-2
4.530000E-8	5.187656E-2
4.535000E-8	5.430038E-2
4.540000E-8	5.663855E-2
4.545000E-8	5.882256E-2
4.550000E-8	6.081814E-2
4.555000E-8	6.261673E-2
4.560000E-8	6.411556E-2
4.565000E-8	6.528036E-2
4.570000E-8	6.619679E-2
4.575000E-8	6.684771E-2
4.580000E-8	6.710465E-2
4.585000E-8	6.697618E-2
4.590000E-8	6.659077E-2
4.595000E-8	6.586277E-2
4.600000E-8	6.470653E-2
4.605000E-8	6.320770E-2
4.610000E-8	6.140911E-2
4.615000E-8	5.931931E-2
4.620000E-8	5.692119E-2
4.625000E-8	5.436033E-2
4.630000E-8	5.182517E-2
4.635000E-8	4.934997E-2
4.640000E-8	4.688332E-2
4.645000E-8	4.454515E-2
4.650000E-8	4.260096E-2
4.655000E-8	4.116208E-2
4.660000E-8	4.010862E-2
4.665000E-8	3.947483E-2
4.670000E-8	3.944914E-2
4.675000E-8	3.994589E-2
4.680000E-8	4.081093E-2
4.685000E-8	4.208708E-2
4.690000E-8	4.379146E-2
4.695000E-8	4.574422E-2
4.700000E-8	4.779119E-2
4.705000E-8	4.993237E-2
4.710000E-8	5.207355E-2
4.715000E-8	5.412909E-2
4.720000E-8	5.598763E-2
4.725000E-8	5.761493E-2
4.730000E-8	5.900242E-2
4.735000E-8	6.017578E-2
4.740000E-8	6.104082E-2
4.745000E-8	6.158897E-2
4.750000E-8	6.194012E-2
4.755000E-8	6.209428E-2
4.760000E-8	6.191443E-2
4.765000E-8	6.146049E-2
4.770000E-8	6.092092E-2
4.775000E-8	6.022717E-2
4.780000E-8	5.922510E-2
4.785000E-8	5.798321E-2
4.790000E-8	5.660429E-2
4.795000E-8	5.507977E-2
4.800000E-8	5.340108E-2
4.805000E-8	5.159393E-2
4.810000E-8	4.976107E-2
4.815000E-8	4.793679E-2
4.820000E-8	4.618958E-2
4.825000E-8	4.451946E-2
4.830000E-8	4.303776E-2
4.835000E-8	4.183013E-2
4.840000E-8	4.085375E-2
4.845000E-8	4.011719E-2
4.850000E-8	3.970608E-2
4.855000E-8	3.965469E-2
4.860000E-8	3.992020E-2
4.865000E-8	4.051117E-2
4.870000E-8	4.151324E-2
4.875000E-8	4.286647E-2
4.880000E-8	4.444238E-2
4.885000E-8	4.617245E-2
4.890000E-8	4.806526E-2
4.895000E-8	5.009510E-2
4.900000E-8	5.212494E-2
4.905000E-8	5.406913E-2
4.910000E-8	5.591911E-2
4.915000E-8	5.763206E-2
4.920000E-8	5.901955E-2
4.925000E-8	6.001306E-2
4.930000E-8	6.073249E-2
4.935000E-8	6.113503E-2
4.940000E-8	6.105795E-2
4.945000E-8	6.058689E-2
4.950000E-8	5.991884E-2
4.955000E-8	5.901098E-2
4.960000E-8	5.777766E-2
4.965000E-8	5.637304E-2
4.970000E-8	5.489991E-2
4.975000E-8	5.326405E-2
4.980000E-8	5.149115E-2
4.985000E-8	4.970969E-2
4.990000E-8	4.793679E-2
4.995000E-8	4.618102E-2
5.000000E-8	4.445094E-2
5.005000E-8	4.279795E-2
5.010000E-8	4.133338E-2
5.015000E-8	4.009149E-2
5.020000E-8	3.908086E-2
5.025000E-8	3.832716E-2
5.030000E-8	3.796744E-2
5.035000E-8	3.801026E-2
5.040000E-8	3.835285E-2
5.045000E-8	3.905516E-2
5.050000E-8	4.014288E-2
5.055000E-8	4.153037E-2
5.060000E-8	4.307202E-2
5.065000E-8	4.476784E-2
5.070000E-8	4.663495E-2
5.075000E-8	4.853632E-2
5.080000E-8	5.030922E-2
5.085000E-8	5.194508E-2
5.090000E-8	5.353812E-2
5.095000E-8	5.503695E-2
5.100000E-8	5.625314E-2
5.105000E-8	5.723808E-2
5.110000E-8	5.813738E-2
5.115000E-8	5.879686E-2
5.120000E-8	5.903668E-2
5.125000E-8	5.901098E-2
5.130000E-8	5.883969E-2
5.135000E-8	5.834293E-2
5.140000E-8	5.742651E-2
5.145000E-8	5.623601E-2
5.150000E-8	5.475431E-2
5.155000E-8	5.291289E-2
5.160000E-8	5.084023E-2
5.165000E-8	4.863053E-2
5.170000E-8	4.634375E-2
5.175000E-8	4.402270E-2
5.180000E-8	4.175305E-2
5.185000E-8	3.968895E-2
5.190000E-8	3.801026E-2
5.195000E-8	3.672555E-2
5.200000E-8	3.579200E-2
5.205000E-8	3.530381E-2
5.210000E-8	3.533807E-2
5.215000E-8	3.581769E-2
5.220000E-8	3.663991E-2
5.225000E-8	3.781328E-2
5.230000E-8	3.932067E-2
5.235000E-8	4.102505E-2
5.240000E-8	4.282364E-2
5.245000E-8	4.466506E-2
5.250000E-8	4.656643E-2
5.255000E-8	4.845067E-2
5.260000E-8	5.018931E-2
5.265000E-8	5.175666E-2
5.270000E-8	5.318697E-2
5.275000E-8	5.442885E-2
5.280000E-8	5.542236E-2
5.285000E-8	5.615036E-2
5.290000E-8	5.668138E-2
5.295000E-8	5.697258E-2
5.300000E-8	5.688693E-2
5.305000E-8	5.637304E-2
5.310000E-8	5.561078E-2
5.315000E-8	5.464297E-2
5.320000E-8	5.334970E-2
5.325000E-8	5.173096E-2
5.330000E-8	4.992380E-2
5.335000E-8	4.796248E-2
5.340000E-8	4.584699E-2
5.345000E-8	4.374007E-2
5.350000E-8	4.172736E-2
5.355000E-8	3.977460E-2
5.360000E-8	3.796744E-2
5.365000E-8	3.647718E-2
5.370000E-8	3.534663E-2
5.375000E-8	3.454155E-2
5.380000E-8	3.409618E-2
5.385000E-8	3.408762E-2
5.390000E-8	3.450729E-2
5.395000E-8	3.532950E-2
5.400000E-8	3.646861E-2
5.405000E-8	3.784753E-2
5.410000E-8	3.944914E-2
5.415000E-8	4.122204E-2
5.420000E-8	4.301207E-2
5.425000E-8	4.472501E-2
5.430000E-8	4.635231E-2
5.435000E-8	4.792822E-2
5.440000E-8	4.934140E-2
5.445000E-8	5.056616E-2
5.450000E-8	5.158536E-2
5.455000E-8	5.240758E-2
5.460000E-8	5.295572E-2
5.465000E-8	5.330687E-2
5.470000E-8	5.350386E-2
5.475000E-8	5.346960E-2
5.480000E-8	5.311845E-2
5.485000E-8	5.251892E-2
5.490000E-8	5.170527E-2
5.495000E-8	5.067750E-2
5.500000E-8	4.943561E-2
5.505000E-8	4.798817E-2
5.510000E-8	4.644652E-2
5.515000E-8	4.487918E-2
5.520000E-8	4.323475E-2
5.525000E-8	4.152180E-2
5.530000E-8	3.999728E-2
5.535000E-8	3.870401E-2
5.540000E-8	3.749638E-2
5.545000E-8	3.644292E-2
5.550000E-8	3.574061E-2
5.555000E-8	3.531237E-2
5.560000E-8	3.504687E-2
5.565000E-8	3.505543E-2
5.570000E-8	3.539802E-2
5.575000E-8	3.594616E-2
5.580000E-8	3.664847E-2
5.585000E-8	3.754777E-2
5.590000E-8	3.863549E-2
5.595000E-8	3.986025E-2
5.600000E-8	4.111070E-2
5.605000E-8	4.236971E-2
5.610000E-8	4.367155E-2
5.615000E-8	4.502478E-2
5.620000E-8	4.629236E-2
5.625000E-8	4.738008E-2
5.630000E-8	4.837359E-2
5.635000E-8	4.927288E-2
5.640000E-8	4.992380E-2
5.645000E-8	5.030922E-2
5.650000E-8	5.054903E-2
5.655000E-8	5.054903E-2
5.660000E-8	5.023213E-2
5.665000E-8	4.967543E-2
5.670000E-8	4.898168E-2
5.675000E-8	4.806526E-2
5.680000E-8	4.689189E-2
5.685000E-8	4.554723E-2
5.690000E-8	4.415118E-2
5.695000E-8	4.275512E-2
5.700000E-8	4.132481E-2
5.705000E-8	3.986025E-2
5.710000E-8	3.847276E-2
5.715000E-8	3.723944E-2
5.720000E-8	3.615172E-2
5.725000E-8	3.520103E-2
5.730000E-8	3.449016E-2
5.735000E-8	3.398484E-2
5.740000E-8	3.360799E-2
5.745000E-8	3.342813E-2
5.750000E-8	3.353091E-2
5.755000E-8	3.377072E-2
5.760000E-8	3.409618E-2
5.765000E-8	3.462720E-2
5.770000E-8	3.539802E-2
5.775000E-8	3.634014E-2
5.780000E-8	3.743643E-2
5.785000E-8	3.871257E-2
5.790000E-8	4.018571E-2
5.795000E-8	4.175305E-2
5.800000E-8	4.326901E-2
5.805000E-8	4.467362E-2
5.810000E-8	4.603542E-2
5.815000E-8	4.727730E-2
5.820000E-8	4.828794E-2
5.825000E-8	4.899881E-2
5.830000E-8	4.942705E-2
5.835000E-8	4.955552E-2
5.840000E-8	4.937566E-2
5.845000E-8	4.889604E-2
5.850000E-8	4.809952E-2
5.855000E-8	4.704605E-2
5.860000E-8	4.580417E-2
5.865000E-8	4.439099E-2
5.870000E-8	4.285790E-2
5.875000E-8	4.127343E-2
5.880000E-8	3.961187E-2
5.885000E-8	3.794175E-2
5.890000E-8	3.642579E-2
5.895000E-8	3.504687E-2
5.900000E-8	3.371933E-2
5.905000E-8	3.255453E-2
5.910000E-8	3.168949E-2
5.915000E-8	3.108140E-2
5.920000E-8	3.070455E-2
5.925000E-8	3.067029E-2
5.930000E-8	3.097006E-2
5.935000E-8	3.154389E-2
5.940000E-8	3.234898E-2
5.945000E-8	3.339387E-2
5.950000E-8	3.463576E-2
5.955000E-8	3.606607E-2
5.960000E-8	3.762485E-2
5.965000E-8	3.918363E-2
5.970000E-8	4.075098E-2
5.975000E-8	4.229263E-2
5.980000E-8	4.367155E-2
5.985000E-8	4.480209E-2
5.990000E-8	4.577847E-2
5.995000E-8	4.661782E-2
6.000000E-8	4.716596E-2
6.005000E-8	4.741434E-2
6.010000E-8	4.747429E-2
6.015000E-8	4.730300E-2
6.020000E-8	4.687476E-2
6.025000E-8	4.625810E-2
6.030000E-8	4.547871E-2
6.035000E-8	4.445951E-2
6.040000E-8	4.322618E-2
6.045000E-8	4.186439E-2
6.050000E-8	4.040839E-2
6.055000E-8	3.886674E-2
6.060000E-8	3.725657E-2
6.065000E-8	3.562070E-2
6.070000E-8	3.406192E-2
6.075000E-8	3.263161E-2
6.080000E-8	3.133834E-2
6.085000E-8	3.025918E-2
6.090000E-8	2.953975E-2
6.095000E-8	2.916290E-2
6.100000E-8	2.908582E-2
6.105000E-8	2.930850E-2
6.110000E-8	2.990803E-2
6.115000E-8	3.085871E-2
6.120000E-8	3.203208E-2
6.125000E-8	3.336818E-2
6.130000E-8	3.485844E-2
6.135000E-8	3.641722E-2
6.140000E-8	3.792462E-2
6.145000E-8	3.930354E-2
6.150000E-8	4.058825E-2
6.155000E-8	4.173592E-2
6.160000E-8	4.269517E-2
6.165000E-8	4.346600E-2
6.170000E-8	4.405696E-2
6.175000E-8	4.443381E-2
6.180000E-8	4.458798E-2
6.185000E-8	4.457941E-2
6.190000E-8	4.448520E-2
6.195000E-8	4.422826E-2
6.200000E-8	4.369724E-2
6.205000E-8	4.298637E-2
6.210000E-8	4.218985E-2
6.215000E-8	4.123917E-2
6.220000E-8	4.002298E-2
6.225000E-8	3.865262E-2
6.230000E-8	3.728226E-2
6.235000E-8	3.587765E-2
6.240000E-8	3.443021E-2
6.245000E-8	3.311124E-2
6.250000E-8	3.198926E-2
6.255000E-8	3.099575E-2
6.260000E-8	3.018210E-2
6.265000E-8	2.966822E-2
6.270000E-8	2.948836E-2
6.275000E-8	2.959970E-2
6.280000E-8	2.988234E-2
6.285000E-8	3.034483E-2
6.290000E-8	3.106427E-2
6.295000E-8	3.197213E-2
6.300000E-8	3.297420E-2
6.305000E-8	3.404479E-2
6.310000E-8	3.522673E-2
6.315000E-8	3.642579E-2
6.320000E-8	3.754777E-2
6.325000E-8	3.857554E-2
6.330000E-8	3.950909E-2
6.335000E-8	4.029705E-2
6.340000E-8	4.088801E-2
6.345000E-8	4.129912E-2
6.350000E-8	4.158176E-2
6.355000E-8	4.171879E-2
6.360000E-8	4.166740E-2
6.365000E-8	4.147898E-2
6.370000E-8	4.124773E-2
6.375000E-8	4.090514E-2
6.380000E-8	4.040839E-2
6.385000E-8	3.980029E-2
6.390000E-8	3.913224E-2
6.395000E-8	3.844707E-2
6.400000E-8	3.768480E-2
6.405000E-8	3.683690E-2
6.410000E-8	3.598042E-2
6.415000E-8	3.514108E-2
6.420000E-8	3.419896E-2
6.425000E-8	3.319689E-2
6.430000E-8	3.230615E-2
6.435000E-8	3.156959E-2
6.440000E-8	3.086728E-2
6.445000E-8	3.028488E-2
6.450000E-8	2.986521E-2
6.455000E-8	2.961683E-2
6.460000E-8	2.951405E-2
6.465000E-8	2.959970E-2
6.470000E-8	2.988234E-2
6.475000E-8	3.033627E-2
6.480000E-8	3.092723E-2
6.485000E-8	3.164667E-2
6.490000E-8	3.251171E-2
6.495000E-8	3.347952E-2
6.500000E-8	3.439595E-2
6.505000E-8	3.532950E-2
6.510000E-8	3.634014E-2
6.515000E-8	3.730796E-2
6.520000E-8	3.812161E-2
6.525000E-8	3.885817E-2
6.530000E-8	3.952622E-2
6.535000E-8	4.002298E-2
6.540000E-8	4.033987E-2
6.545000E-8	4.057112E-2
6.550000E-8	4.067390E-2
6.555000E-8	4.053686E-2
6.560000E-8	4.016858E-2
6.565000E-8	3.965469E-2
6.570000E-8	3.902090E-2
6.575000E-8	3.820725E-2
6.580000E-8	3.721374E-2
6.585000E-8	3.610033E-2
6.590000E-8	3.490983E-2
6.595000E-8	3.366795E-2
6.600000E-8	3.239180E-2
6.605000E-8	3.118417E-2
6.610000E-8	3.017354E-2
6.615000E-8	2.934276E-2
6.620000E-8	2.860619E-2
6.625000E-8	2.798097E-2
6.630000E-8	2.758699E-2
6.635000E-8	2.749278E-2
6.640000E-8	2.758699E-2
6.645000E-8	2.783537E-2
6.650000E-8	2.829786E-2
6.655000E-8	2.896591E-2
6.660000E-8	2.977956E-2
6.665000E-8	3.066173E-2
6.670000E-8	3.165523E-2
6.675000E-8	3.270870E-2
6.680000E-8	3.373646E-2
6.685000E-8	3.471284E-2
6.690000E-8	3.568922E-2
6.695000E-8	3.661421E-2
6.700000E-8	3.735934E-2
6.705000E-8	3.795031E-2
6.710000E-8	3.846419E-2
6.715000E-8	3.886674E-2
6.720000E-8	3.903803E-2
6.725000E-8	3.899521E-2
6.730000E-8	3.881535E-2
6.735000E-8	3.849845E-2
6.740000E-8	3.799313E-2
6.745000E-8	3.734222E-2
6.750000E-8	3.664847E-2
6.755000E-8	3.587765E-2
6.760000E-8	3.496122E-2
6.765000E-8	3.392489E-2
6.770000E-8	3.290569E-2
6.775000E-8	3.192074E-2
6.780000E-8	3.092723E-2
6.785000E-8	2.997655E-2
6.790000E-8	2.912864E-2
6.795000E-8	2.840920E-2
6.800000E-8	2.780111E-2
6.805000E-8	2.733005E-2
6.810000E-8	2.706454E-2
6.815000E-8	2.703885E-2
6.820000E-8	2.715875E-2
6.825000E-8	2.740713E-2
6.830000E-8	2.788675E-2
6.835000E-8	2.862332E-2
6.840000E-8	2.948836E-2
6.845000E-8	3.043904E-2
6.850000E-8	3.156102E-2
6.855000E-8	3.276865E-2
6.860000E-8	3.389063E-2
6.865000E-8	3.493553E-2
6.870000E-8	3.594616E-2
6.875000E-8	3.684546E-2
6.880000E-8	3.758203E-2
6.885000E-8	3.813017E-2
6.890000E-8	3.847276E-2
6.895000E-8	3.856697E-2
6.900000E-8	3.846419E-2
6.905000E-8	3.821582E-2
6.910000E-8	3.780471E-2
6.915000E-8	3.723944E-2
6.920000E-8	3.650287E-2
6.925000E-8	3.565496E-2
6.930000E-8	3.476423E-2
6.935000E-8	3.382211E-2
6.940000E-8	3.278578E-2
6.945000E-8	3.169806E-2
6.950000E-8	3.063603E-2
6.955000E-8	2.959113E-2
6.960000E-8	2.855480E-2
6.965000E-8	2.765551E-2
6.970000E-8	2.697889E-2
6.975000E-8	2.645644E-2
6.980000E-8	2.603677E-2
6.985000E-8	2.582265E-2
6.990000E-8	2.590830E-2
6.995000E-8	2.617381E-2
7.000000E-8	2.653353E-2
7.005000E-8	2.704741E-2
7.010000E-8	2.774972E-2
7.015000E-8	2.854624E-2
7.020000E-8	2.935132E-2
7.025000E-8	3.017354E-2
7.030000E-8	3.103001E-2
7.035000E-8	3.183509E-2
7.040000E-8	3.252884E-2
7.045000E-8	3.314550E-2
7.050000E-8	3.377929E-2
7.055000E-8	3.434456E-2
7.060000E-8	3.476423E-2
7.065000E-8	3.508969E-2
7.070000E-8	3.533807E-2
7.075000E-8	3.538946E-2
7.080000E-8	3.523529E-2
7.085000E-8	3.499548E-2
7.090000E-8	3.467858E-2
7.095000E-8	3.419039E-2
7.100000E-8	3.354804E-2
7.105000E-8	3.282004E-2
7.110000E-8	3.203208E-2
7.115000E-8	3.121843E-2
7.120000E-8	3.040478E-2
7.125000E-8	2.959113E-2
7.130000E-8	2.882031E-2
7.135000E-8	2.814370E-2
7.140000E-8	2.756129E-2
7.145000E-8	2.705597E-2
7.150000E-8	2.668769E-2
7.155000E-8	2.647357E-2
7.160000E-8	2.636223E-2
7.165000E-8	2.630228E-2
7.170000E-8	2.634510E-2
7.175000E-8	2.650783E-2
7.180000E-8	2.670482E-2
7.185000E-8	2.697033E-2
7.190000E-8	2.737287E-2
7.195000E-8	2.786106E-2
7.200000E-8	2.838351E-2
7.205000E-8	2.894878E-2
7.210000E-8	2.960826E-2
7.215000E-8	3.031057E-2
7.220000E-8	3.099575E-2
7.225000E-8	3.165523E-2
7.230000E-8	3.226333E-2
7.235000E-8	3.283717E-2
7.240000E-8	3.331679E-2
7.245000E-8	3.367651E-2
7.250000E-8	3.391632E-2
7.255000E-8	3.405336E-2
7.260000E-8	3.406192E-2
7.265000E-8	3.392489E-2
7.270000E-8	3.370221E-2
7.275000E-8	3.339387E-2
7.280000E-8	3.293994E-2
7.285000E-8	3.234898E-2
7.290000E-8	3.174088E-2
7.295000E-8	3.108996E-2
7.300000E-8	3.030201E-2
7.305000E-8	2.945410E-2
7.310000E-8	2.866614E-2
7.315000E-8	2.787819E-2
7.320000E-8	2.707310E-2
7.325000E-8	2.636223E-2
7.330000E-8	2.582265E-2
7.335000E-8	2.536872E-2
7.340000E-8	2.500044E-2
7.345000E-8	2.476063E-2
7.350000E-8	2.471780E-2
7.355000E-8	2.489766E-2
7.360000E-8	2.517173E-2
7.365000E-8	2.551432E-2
7.370000E-8	2.604534E-2
7.375000E-8	2.671339E-2
7.380000E-8	2.730435E-2
7.385000E-8	2.788675E-2
7.390000E-8	2.859763E-2
7.395000E-8	2.933419E-2
7.400000E-8	2.994229E-2
7.405000E-8	3.049043E-2
7.410000E-8	3.108140E-2
7.415000E-8	3.160385E-2
7.420000E-8	3.204921E-2
7.425000E-8	3.245175E-2
7.430000E-8	3.279434E-2
7.435000E-8	3.299990E-2
7.440000E-8	3.306842E-2
7.445000E-8	3.305129E-2
7.450000E-8	3.291425E-2
7.455000E-8	3.263161E-2
7.460000E-8	3.221194E-2
7.465000E-8	3.168093E-2
7.470000E-8	3.107283E-2
7.475000E-8	3.037909E-2
7.480000E-8	2.954831E-2
7.485000E-8	2.864045E-2
7.490000E-8	2.777541E-2
7.495000E-8	2.698746E-2
7.500000E-8	2.623376E-2
7.505000E-8	2.553145E-2
7.510000E-8	2.496618E-2
7.515000E-8	2.458077E-2
7.520000E-8	2.430670E-2
7.525000E-8	2.410971E-2
7.530000E-8	2.409258E-2
7.535000E-8	2.428100E-2
7.540000E-8	2.457220E-2
7.545000E-8	2.490623E-2
7.550000E-8	2.537729E-2
7.555000E-8	2.599395E-2
7.560000E-8	2.666200E-2
7.565000E-8	2.730435E-2
7.570000E-8	2.800666E-2
7.575000E-8	2.873466E-2
7.580000E-8	2.936845E-2
7.585000E-8	2.990803E-2
7.590000E-8	3.043904E-2
7.595000E-8	3.095293E-2
7.600000E-8	3.132121E-2
7.605000E-8	3.156959E-2
7.610000E-8	3.175801E-2
7.615000E-8	3.183509E-2
7.620000E-8	3.174945E-2
7.625000E-8	3.151820E-2
7.630000E-8	3.120987E-2
7.635000E-8	3.080733E-2
7.640000E-8	3.026775E-2
7.645000E-8	2.965109E-2
7.650000E-8	2.901730E-2
7.655000E-8	2.834068E-2
7.660000E-8	2.755273E-2
7.665000E-8	2.675621E-2
7.670000E-8	2.606247E-2
7.675000E-8	2.542868E-2
7.680000E-8	2.481202E-2
7.685000E-8	2.430670E-2
7.690000E-8	2.395554E-2
7.695000E-8	2.365578E-2
7.700000E-8	2.345022E-2
7.705000E-8	2.343309E-2
7.710000E-8	2.359582E-2
7.715000E-8	2.387846E-2
7.720000E-8	2.422105E-2
7.725000E-8	2.465785E-2
7.730000E-8	2.523169E-2
7.735000E-8	2.589117E-2
7.740000E-8	2.649927E-2
7.745000E-8	2.707310E-2
7.750000E-8	2.774972E-2
7.755000E-8	2.843490E-2
7.760000E-8	2.896591E-2
7.765000E-8	2.938558E-2
7.770000E-8	2.978812E-2
7.775000E-8	3.007932E-2
7.780000E-8	3.019923E-2
7.785000E-8	3.022492E-2
7.790000E-8	3.020780E-2
7.795000E-8	3.006219E-2
7.800000E-8	2.978812E-2
7.805000E-8	2.950549E-2
7.810000E-8	2.922285E-2
7.815000E-8	2.882887E-2
7.820000E-8	2.828930E-2
7.825000E-8	2.774115E-2
7.830000E-8	2.719301E-2
7.835000E-8	2.660204E-2
7.840000E-8	2.595112E-2
7.845000E-8	2.539442E-2
7.850000E-8	2.493192E-2
7.855000E-8	2.451225E-2
7.860000E-8	2.411827E-2
7.865000E-8	2.380994E-2
7.870000E-8	2.364721E-2
7.875000E-8	2.360439E-2
7.880000E-8	2.357013E-2
7.885000E-8	2.355300E-2
7.890000E-8	2.367291E-2
7.895000E-8	2.390415E-2
7.900000E-8	2.413540E-2
7.905000E-8	2.440091E-2
7.910000E-8	2.474350E-2
7.915000E-8	2.513748E-2
7.920000E-8	2.549719E-2
7.925000E-8	2.588261E-2
7.930000E-8	2.633654E-2
7.935000E-8	2.684186E-2
7.940000E-8	2.729579E-2
7.945000E-8	2.772402E-2
7.950000E-8	2.816082E-2
7.955000E-8	2.852054E-2
7.960000E-8	2.876036E-2
7.965000E-8	2.892309E-2
7.970000E-8	2.899160E-2
7.975000E-8	2.899160E-2
7.980000E-8	2.892309E-2
7.985000E-8	2.877749E-2
7.990000E-8	2.858050E-2
7.995000E-8	2.832355E-2
8.000000E-8	2.797240E-2
8.005000E-8	2.749278E-2
8.010000E-8	2.701315E-2
8.015000E-8	2.654209E-2
8.020000E-8	2.598538E-2
8.025000E-8	2.539442E-2
8.030000E-8	2.488910E-2
8.035000E-8	2.442660E-2
8.040000E-8	2.398124E-2
8.045000E-8	2.360439E-2
8.050000E-8	2.333032E-2
8.055000E-8	2.317615E-2
8.060000E-8	2.313333E-2
8.065000E-8	2.319328E-2
8.070000E-8	2.333888E-2
8.075000E-8	2.360439E-2
8.080000E-8	2.388702E-2
8.085000E-8	2.415253E-2
8.090000E-8	2.444373E-2
8.095000E-8	2.479489E-2
8.100000E-8	2.503470E-2
8.105000E-8	2.520599E-2
8.110000E-8	2.541155E-2
8.115000E-8	2.562566E-2
8.120000E-8	2.572844E-2
8.125000E-8	2.581409E-2
8.130000E-8	2.600251E-2
8.135000E-8	2.615668E-2
8.140000E-8	2.623376E-2
8.145000E-8	2.631084E-2
8.150000E-8	2.645644E-2
8.155000E-8	2.655066E-2
8.160000E-8	2.656779E-2
8.165000E-8	2.652496E-2
8.170000E-8	2.646501E-2
8.175000E-8	2.635367E-2
8.180000E-8	2.614811E-2
8.185000E-8	2.581409E-2
8.190000E-8	2.542011E-2
8.195000E-8	2.505183E-2
8.200000E-8	2.467498E-2
8.205000E-8	2.424674E-2
8.210000E-8	2.380138E-2
8.215000E-8	2.339027E-2
8.220000E-8	2.296203E-2
8.225000E-8	2.259375E-2
8.230000E-8	2.232824E-2
8.235000E-8	2.210556E-2
8.240000E-8	2.192570E-2
8.245000E-8	2.183149E-2
8.250000E-8	2.184005E-2
8.255000E-8	2.190857E-2
8.260000E-8	2.203704E-2
8.265000E-8	2.225973E-2
8.270000E-8	2.260232E-2
8.275000E-8	2.303912E-2
8.280000E-8	2.349305E-2
8.285000E-8	2.394698E-2
8.290000E-8	2.448656E-2
8.295000E-8	2.512035E-2
8.300000E-8	2.569418E-2
8.305000E-8	2.615668E-2
8.310000E-8	2.659348E-2
8.315000E-8	2.698746E-2
8.320000E-8	2.727866E-2
8.325000E-8	2.741569E-2
8.330000E-8	2.739856E-2
8.335000E-8	2.726153E-2
8.340000E-8	2.699602E-2
8.345000E-8	2.660204E-2
8.350000E-8	2.617381E-2
8.355000E-8	2.569418E-2
8.360000E-8	2.510322E-2
8.365000E-8	2.446086E-2
8.370000E-8	2.386133E-2
8.375000E-8	2.335601E-2
8.380000E-8	2.289352E-2
8.385000E-8	2.247384E-2
8.390000E-8	2.213982E-2
8.395000E-8	2.187431E-2
8.400000E-8	2.164307E-2
8.405000E-8	2.148890E-2
8.410000E-8	2.144608E-2
8.415000E-8	2.142895E-2
8.420000E-8	2.137756E-2
8.425000E-8	2.137756E-2
8.430000E-8	2.149747E-2
8.435000E-8	2.166876E-2
8.440000E-8	2.183149E-2
8.445000E-8	2.206274E-2
8.450000E-8	2.241389E-2
8.455000E-8	2.284213E-2
8.460000E-8	2.330462E-2
8.465000E-8	2.379281E-2
8.470000E-8	2.430670E-2
8.475000E-8	2.480345E-2
8.480000E-8	2.521456E-2
8.485000E-8	2.558284E-2
8.490000E-8	2.595112E-2
8.495000E-8	2.619950E-2
8.500000E-8	2.629371E-2
8.505000E-8	2.631084E-2
8.510000E-8	2.628515E-2
8.515000E-8	2.608816E-2
8.520000E-8	2.573701E-2
8.525000E-8	2.535159E-2
8.530000E-8	2.494049E-2
8.535000E-8	2.449512E-2
8.540000E-8	2.400693E-2
8.545000E-8	2.348448E-2
8.550000E-8	2.300486E-2
8.555000E-8	2.261088E-2
8.560000E-8	2.224260E-2
8.565000E-8	2.182292E-2
8.570000E-8	2.143751E-2
8.575000E-8	2.114631E-2
8.580000E-8	2.090650E-2
8.585000E-8	2.070095E-2
8.590000E-8	2.059817E-2
8.595000E-8	2.060673E-2
8.600000E-8	2.067525E-2
8.605000E-8	2.079516E-2
8.610000E-8	2.099215E-2
8.615000E-8	2.122339E-2
8.620000E-8	2.145464E-2
8.625000E-8	2.172871E-2
8.630000E-8	2.211413E-2
8.635000E-8	2.250810E-2
8.640000E-8	2.285069E-2
8.645000E-8	2.316759E-2
8.650000E-8	2.349305E-2
8.655000E-8	2.379281E-2
8.660000E-8	2.404119E-2
8.665000E-8	2.428100E-2
8.670000E-8	2.453794E-2
8.675000E-8	2.473493E-2
8.680000E-8	2.484627E-2
8.685000E-8	2.490623E-2
8.690000E-8	2.492336E-2
8.695000E-8	2.485484E-2
8.700000E-8	2.466642E-2
8.705000E-8	2.440947E-2
8.710000E-8	2.414397E-2
8.715000E-8	2.381851E-2
8.720000E-8	2.339027E-2
8.725000E-8	2.287639E-2
8.730000E-8	2.237107E-2
8.735000E-8	2.190001E-2
8.740000E-8	2.142895E-2
8.745000E-8	2.095789E-2
8.750000E-8	2.057247E-2
8.755000E-8	2.027271E-2
8.760000E-8	2.005003E-2
8.765000E-8	1.993868E-2
8.770000E-8	1.991299E-2
8.775000E-8	1.986160E-2
8.780000E-8	1.987017E-2
8.785000E-8	2.000720E-2
8.790000E-8	2.020419E-2
8.795000E-8	2.040118E-2
8.800000E-8	2.067525E-2
8.805000E-8	2.100071E-2
8.810000E-8	2.135186E-2
8.815000E-8	2.172015E-2
8.820000E-8	2.203704E-2
8.825000E-8	2.229399E-2
8.830000E-8	2.255093E-2
8.835000E-8	2.277361E-2
8.840000E-8	2.288495E-2
8.845000E-8	2.293634E-2
8.850000E-8	2.297916E-2
8.855000E-8	2.295347E-2
8.860000E-8	2.283356E-2
8.865000E-8	2.273079E-2
8.870000E-8	2.261088E-2
8.875000E-8	2.247384E-2
8.880000E-8	2.240533E-2
8.885000E-8	2.236250E-2
8.890000E-8	2.222547E-2
8.895000E-8	2.208843E-2
8.900000E-8	2.196853E-2
8.905000E-8	2.178867E-2
8.910000E-8	2.157455E-2
8.915000E-8	2.137756E-2
8.920000E-8	2.110349E-2
8.925000E-8	2.074377E-2
8.930000E-8	2.040974E-2
8.935000E-8	2.008428E-2
8.940000E-8	1.973313E-2
8.945000E-8	1.948475E-2
8.950000E-8	1.944193E-2
8.955000E-8	1.943337E-2
8.960000E-8	1.938198E-2
8.965000E-8	1.942480E-2
8.970000E-8	1.962179E-2
8.975000E-8	1.987017E-2
8.980000E-8	2.014424E-2
8.985000E-8	2.043544E-2
8.990000E-8	2.072664E-2
8.995000E-8	2.100071E-2
9.000000E-8	2.124052E-2
9.005000E-8	2.148034E-2
9.010000E-8	2.173728E-2
9.015000E-8	2.201135E-2
9.020000E-8	2.221690E-2
9.025000E-8	2.230255E-2
9.030000E-8	2.236250E-2
9.035000E-8	2.245671E-2
9.040000E-8	2.253380E-2
9.045000E-8	2.251667E-2
9.050000E-8	2.248241E-2
9.055000E-8	2.244815E-2
9.060000E-8	2.239676E-2
9.065000E-8	2.225973E-2
9.070000E-8	2.204561E-2
9.075000E-8	2.183149E-2
9.080000E-8	2.163450E-2
9.085000E-8	2.141182E-2
9.090000E-8	2.118057E-2
9.095000E-8	2.095789E-2
9.100000E-8	2.070095E-2
9.105000E-8	2.040118E-2
9.110000E-8	2.014424E-2
9.115000E-8	1.993868E-2
9.120000E-8	1.973313E-2
9.125000E-8	1.956184E-2
9.130000E-8	1.943337E-2
9.135000E-8	1.931346E-2
9.140000E-8	1.920212E-2
9.145000E-8	1.914216E-2
9.150000E-8	1.918499E-2
9.155000E-8	1.930489E-2
9.160000E-8	1.945049E-2
9.165000E-8	1.964748E-2
9.170000E-8	1.993868E-2
9.175000E-8	2.025558E-2
9.180000E-8	2.053822E-2
9.185000E-8	2.084655E-2
9.190000E-8	2.117201E-2
9.195000E-8	2.142038E-2
9.200000E-8	2.159168E-2
9.205000E-8	2.175441E-2
9.210000E-8	2.187431E-2
9.215000E-8	2.195140E-2
9.220000E-8	2.195996E-2
9.225000E-8	2.186575E-2
9.230000E-8	2.169445E-2
9.235000E-8	2.155742E-2
9.240000E-8	2.142895E-2
9.245000E-8	2.118057E-2
9.250000E-8	2.088080E-2
9.255000E-8	2.061530E-2
9.260000E-8	2.030697E-2
9.265000E-8	1.996438E-2
9.270000E-8	1.966461E-2
9.275000E-8	1.937341E-2
9.280000E-8	1.905652E-2
9.285000E-8	1.876532E-2
9.290000E-8	1.856833E-2
9.295000E-8	1.844842E-2
9.300000E-8	1.833708E-2
9.305000E-8	1.830282E-2
9.310000E-8	1.837990E-2
9.315000E-8	1.853407E-2
9.320000E-8	1.868823E-2
9.325000E-8	1.884240E-2
9.330000E-8	1.905652E-2
9.335000E-8	1.933915E-2
9.340000E-8	1.952758E-2
9.345000E-8	1.962179E-2
9.350000E-8	1.978452E-2
9.355000E-8	2.005003E-2
9.360000E-8	2.028127E-2
9.365000E-8	2.045257E-2
9.370000E-8	2.064099E-2
9.375000E-8	2.082085E-2
9.380000E-8	2.090650E-2
9.385000E-8	2.096645E-2
9.390000E-8	2.100928E-2
9.395000E-8	2.100928E-2
9.400000E-8	2.098358E-2
9.405000E-8	2.094076E-2
9.410000E-8	2.082085E-2
9.415000E-8	2.060673E-2
9.420000E-8	2.038405E-2
9.425000E-8	2.012711E-2
9.430000E-8	1.984447E-2
9.435000E-8	1.958753E-2
9.440000E-8	1.936485E-2
9.445000E-8	1.911647E-2
9.450000E-8	1.892805E-2
9.455000E-8	1.880814E-2
9.460000E-8	1.867110E-2
9.465000E-8	1.852550E-2
9.470000E-8	1.846555E-2
9.475000E-8	1.842273E-2
9.480000E-8	1.836277E-2
9.485000E-8	1.831139E-2
9.490000E-8	1.834564E-2
9.495000E-8	1.848268E-2
9.500000E-8	1.855976E-2
9.505000E-8	1.853407E-2
9.510000E-8	1.860259E-2
9.515000E-8	1.881670E-2
9.520000E-8	1.898800E-2
9.525000E-8	1.909078E-2
9.530000E-8	1.924494E-2
9.535000E-8	1.937341E-2
9.540000E-8	1.942480E-2
9.545000E-8	1.949332E-2
9.550000E-8	1.959610E-2
9.555000E-8	1.960466E-2
9.560000E-8	1.952758E-2
9.565000E-8	1.947619E-2
9.570000E-8	1.944193E-2
9.575000E-8	1.933915E-2
9.580000E-8	1.920212E-2
9.585000E-8	1.906508E-2
9.590000E-8	1.892805E-2
9.595000E-8	1.880814E-2
9.600000E-8	1.877388E-2
9.605000E-8	1.875675E-2
9.610000E-8	1.870536E-2
9.615000E-8	1.870536E-2
9.620000E-8	1.873106E-2
9.625000E-8	1.869680E-2
9.630000E-8	1.863685E-2
9.635000E-8	1.861115E-2
9.640000E-8	1.851694E-2
9.645000E-8	1.833708E-2
9.650000E-8	1.816579E-2
9.655000E-8	1.801162E-2
9.660000E-8	1.778894E-2
9.665000E-8	1.753200E-2
9.670000E-8	1.741209E-2
9.675000E-8	1.736927E-2
9.680000E-8	1.733501E-2
9.685000E-8	1.731788E-2
9.690000E-8	1.734357E-2
9.695000E-8	1.744635E-2
9.700000E-8	1.760908E-2
9.705000E-8	1.780607E-2
9.710000E-8	1.803731E-2
9.715000E-8	1.828569E-2
9.720000E-8	1.845699E-2
9.725000E-8	1.857689E-2
9.730000E-8	1.879101E-2
9.735000E-8	1.897087E-2
9.740000E-8	1.903939E-2
9.745000E-8	1.908221E-2
9.750000E-8	1.915929E-2
9.755000E-8	1.915073E-2
9.760000E-8	1.906508E-2
9.765000E-8	1.900513E-2
9.770000E-8	1.894518E-2
9.775000E-8	1.882527E-2
9.780000E-8	1.871393E-2
9.785000E-8	1.859402E-2
9.790000E-8	1.845699E-2
9.795000E-8	1.836277E-2
9.800000E-8	1.826000E-2
9.805000E-8	1.809727E-2
9.810000E-8	1.796023E-2
9.815000E-8	1.788315E-2
9.820000E-8	1.774611E-2
9.825000E-8	1.751487E-2
9.830000E-8	1.736927E-2
9.835000E-8	1.734357E-2
9.840000E-8	1.725792E-2
9.845000E-8	1.713802E-2
9.850000E-8	1.715515E-2
9.855000E-8	1.724936E-2
9.860000E-8	1.734357E-2
9.865000E-8	1.748917E-2
9.870000E-8	1.772898E-2
9.875000E-8	1.796023E-2
9.880000E-8	1.813153E-2
9.885000E-8	1.835421E-2
9.890000E-8	1.860259E-2
9.895000E-8	1.881670E-2
9.900000E-8	1.898800E-2
9.905000E-8	1.912504E-2
9.910000E-8	1.927064E-2
9.915000E-8	1.939911E-2
9.920000E-8	1.942480E-2
9.925000E-8	1.936485E-2
9.930000E-8	1.934772E-2
9.935000E-8	1.933915E-2
9.940000E-8	1.924494E-2
9.945000E-8	1.903082E-2
9.950000E-8	1.880814E-2
9.955000E-8	1.859402E-2
9.960000E-8	1.831995E-2
9.965000E-8	1.800306E-2
9.970000E-8	1.769473E-2
9.975000E-8	1.741209E-2
9.980000E-8	1.710376E-2
9.985000E-8	1.677830E-2
9.990000E-8	1.657275E-2
9.995000E-8	1.646140E-2
1.000000E-7	1.630724E-2
1.000500E-7	1.616164E-2
1.001000E-7	1.615307E-2
1.001500E-7	1.622159E-2
1.002000E-7	1.626442E-2
1.002500E-7	1.634150E-2
1.003000E-7	1.654705E-2
1.003500E-7	1.674404E-2
1.004000E-7	1.684682E-2
1.004500E-7	1.690677E-2
1.005000E-7	1.704381E-2
1.005500E-7	1.723223E-2
1.006000E-7	1.739496E-2
1.006500E-7	1.751487E-2
1.007000E-7	1.763477E-2
1.007500E-7	1.774611E-2
1.008000E-7	1.780607E-2
1.008500E-7	1.787458E-2
1.009000E-7	1.800306E-2
1.009500E-7	1.808014E-2
1.010000E-7	1.803731E-2
1.010500E-7	1.802018E-2
1.011000E-7	1.805444E-2
1.011500E-7	1.798593E-2
1.012000E-7	1.778894E-2
1.012500E-7	1.762621E-2
1.013000E-7	1.752343E-2
1.013500E-7	1.736927E-2
1.014000E-7	1.715515E-2
1.014500E-7	1.698385E-2
1.015000E-7	1.682969E-2
1.015500E-7	1.669265E-2
1.016000E-7	1.658131E-2
1.016500E-7	1.653849E-2
1.017000E-7	1.652992E-2
1.017500E-7	1.653849E-2
1.018000E-7	1.649566E-2
1.018500E-7	1.645284E-2
1.019000E-7	1.649566E-2
1.019500E-7	1.654705E-2
1.020000E-7	1.650423E-2
1.020500E-7	1.646140E-2
1.021000E-7	1.652136E-2
1.021500E-7	1.653849E-2
1.022000E-7	1.645284E-2
1.022500E-7	1.641858E-2
1.023000E-7	1.645284E-2
1.023500E-7	1.646997E-2
1.024000E-7	1.647853E-2
1.024500E-7	1.654705E-2
1.025000E-7	1.671835E-2
1.025500E-7	1.692390E-2
1.026000E-7	1.709519E-2
1.026500E-7	1.722367E-2
1.027000E-7	1.739496E-2
1.027500E-7	1.758338E-2
1.028000E-7	1.766903E-2
1.028500E-7	1.773755E-2
1.029000E-7	1.785746E-2
1.029500E-7	1.790884E-2
1.030000E-7	1.780607E-2
1.030500E-7	1.766903E-2
1.031000E-7	1.760908E-2
1.031500E-7	1.751487E-2
1.032000E-7	1.735214E-2
1.032500E-7	1.718084E-2
1.033000E-7	1.704381E-2
1.033500E-7	1.692390E-2
1.034000E-7	1.672691E-2
1.034500E-7	1.651279E-2
1.035000E-7	1.638432E-2
1.035500E-7	1.630724E-2
1.036000E-7	1.616164E-2
1.036500E-7	1.598178E-2
1.037000E-7	1.586187E-2
1.037500E-7	1.580192E-2
1.038000E-7	1.573340E-2
1.038500E-7	1.567345E-2
1.039000E-7	1.563063E-2
1.039500E-7	1.561350E-2
1.040000E-7	1.556211E-2
1.040500E-7	1.546790E-2
1.041000E-7	1.543364E-2
1.041500E-7	1.547646E-2
1.042000E-7	1.551072E-2
1.042500E-7	1.552785E-2
1.043000E-7	1.558780E-2
1.043500E-7	1.573340E-2
1.044000E-7	1.586187E-2
1.044500E-7	1.599034E-2
1.045000E-7	1.621303E-2
1.045500E-7	1.646140E-2
1.046000E-7	1.662413E-2
1.046500E-7	1.670978E-2
1.047000E-7	1.680399E-2
1.047500E-7	1.684682E-2
1.048000E-7	1.676117E-2
1.048500E-7	1.664126E-2
1.049000E-7	1.648710E-2
1.049500E-7	1.627298E-2
1.050000E-7	1.603317E-2
1.050500E-7	1.587044E-2
1.051000E-7	1.571627E-2
1.051500E-7	1.551072E-2
1.052000E-7	1.533942E-2
1.052500E-7	1.525378E-2
1.053000E-7	1.521952E-2
1.053500E-7	1.521095E-2
1.054000E-7	1.519382E-2
1.054500E-7	1.515100E-2
1.055000E-7	1.520239E-2
1.055500E-7	1.533942E-2
1.056000E-7	1.544220E-2
1.056500E-7	1.545077E-2
1.057000E-7	1.548502E-2
1.057500E-7	1.556211E-2
1.058000E-7	1.561350E-2
1.058500E-7	1.566488E-2
1.059000E-7	1.571627E-2
1.059500E-7	1.573340E-2
1.060000E-7	1.572484E-2
1.060500E-7	1.573340E-2
1.061000E-7	1.581048E-2
1.061500E-7	1.589613E-2
1.062000E-7	1.591326E-2
1.062500E-7	1.593039E-2
1.063000E-7	1.605030E-2
1.063500E-7	1.618733E-2
1.064000E-7	1.624729E-2
1.064500E-7	1.624729E-2
1.065000E-7	1.625585E-2
1.065500E-7	1.621303E-2
1.066000E-7	1.610169E-2
1.066500E-7	1.596465E-2
1.067000E-7	1.582761E-2
1.067500E-7	1.566488E-2
1.068000E-7	1.547646E-2
1.068500E-7	1.529660E-2
1.069000E-7	1.515957E-2
1.069500E-7	1.506535E-2
1.070000E-7	1.500540E-2
1.070500E-7	1.497971E-2
1.071000E-7	1.500540E-2
1.071500E-7	1.501396E-2
1.072000E-7	1.496258E-2
1.072500E-7	1.492832E-2
1.073000E-7	1.493688E-2
1.073500E-7	1.489406E-2
1.074000E-7	1.478272E-2
1.074500E-7	1.471420E-2
1.075000E-7	1.467994E-2
1.075500E-7	1.465425E-2
1.076000E-7	1.467994E-2
1.076500E-7	1.478272E-2
1.077000E-7	1.491119E-2
1.077500E-7	1.500540E-2
1.078000E-7	1.512531E-2
1.078500E-7	1.524521E-2
1.079000E-7	1.538225E-2
1.079500E-7	1.549359E-2
1.080000E-7	1.554498E-2
1.080500E-7	1.547646E-2
1.081000E-7	1.539081E-2
1.081500E-7	1.531373E-2
1.082000E-7	1.517669E-2
1.082500E-7	1.498827E-2
1.083000E-7	1.482554E-2
1.083500E-7	1.471420E-2
1.084000E-7	1.458573E-2
1.084500E-7	1.445726E-2
1.085000E-7	1.438874E-2
1.085500E-7	1.434592E-2
1.086000E-7	1.430309E-2
1.086500E-7	1.429453E-2
1.087000E-7	1.432879E-2
1.087500E-7	1.438017E-2
1.088000E-7	1.441443E-2
1.088500E-7	1.444869E-2
1.089000E-7	1.447439E-2
1.089500E-7	1.452578E-2
1.090000E-7	1.456003E-2
1.090500E-7	1.452578E-2
1.091000E-7	1.451721E-2
1.091500E-7	1.458573E-2
1.092000E-7	1.465425E-2
1.092500E-7	1.467994E-2
1.093000E-7	1.474846E-2
1.093500E-7	1.486836E-2
1.094000E-7	1.495401E-2
1.094500E-7	1.502253E-2
1.095000E-7	1.520239E-2
1.095500E-7	1.543364E-2
1.096000E-7	1.561350E-2
1.096500E-7	1.573340E-2
1.097000E-7	1.582761E-2
1.097500E-7	1.587900E-2
1.098000E-7	1.587900E-2
1.098500E-7	1.583618E-2
1.099000E-7	1.574197E-2
1.099500E-7	1.560493E-2
1.100000E-7	1.539938E-2
1.100500E-7	1.515957E-2
1.101000E-7	1.493688E-2
1.101500E-7	1.474846E-2
1.102000E-7	1.456860E-2
1.102500E-7	1.441443E-2
1.103000E-7	1.429453E-2
1.103500E-7	1.420032E-2
1.104000E-7	1.408897E-2
1.104500E-7	1.395194E-2
1.105000E-7	1.386629E-2
1.105500E-7	1.375495E-2
1.106000E-7	1.362648E-2
1.106500E-7	1.351514E-2
1.107000E-7	1.345518E-2
1.107500E-7	1.340380E-2
1.108000E-7	1.335241E-2
1.108500E-7	1.334384E-2
1.109000E-7	1.337810E-2
1.109500E-7	1.346375E-2
1.110000E-7	1.354940E-2
1.110500E-7	1.366930E-2
1.111000E-7	1.379777E-2
1.111500E-7	1.392624E-2
1.112000E-7	1.401189E-2
1.112500E-7	1.405472E-2
1.113000E-7	1.406328E-2
1.113500E-7	1.404615E-2
1.114000E-7	1.397763E-2
1.114500E-7	1.388342E-2
1.115000E-7	1.382347E-2
1.115500E-7	1.377208E-2
1.116000E-7	1.367787E-2
1.116500E-7	1.356653E-2
1.117000E-7	1.349801E-2
1.117500E-7	1.343805E-2
1.118000E-7	1.336097E-2
1.118500E-7	1.329245E-2
1.119000E-7	1.330958E-2
1.119500E-7	1.336097E-2
1.120000E-7	1.338667E-2
1.120500E-7	1.336097E-2
1.121000E-7	1.336097E-2
1.121500E-7	1.338667E-2
1.122000E-7	1.342092E-2
1.122500E-7	1.349801E-2
1.123000E-7	1.362648E-2
1.123500E-7	1.372926E-2
1.124000E-7	1.377208E-2
1.124500E-7	1.378921E-2
1.125000E-7	1.384916E-2
1.125500E-7	1.394337E-2
1.126000E-7	1.404615E-2
1.126500E-7	1.417462E-2
1.127000E-7	1.424314E-2
1.127500E-7	1.431166E-2
1.128000E-7	1.439730E-2
1.128500E-7	1.440587E-2
1.129000E-7	1.433735E-2
1.129500E-7	1.428596E-2
1.130000E-7	1.422601E-2
1.130500E-7	1.405472E-2
1.131000E-7	1.389199E-2
1.131500E-7	1.382347E-2
1.132000E-7	1.377208E-2
1.132500E-7	1.370356E-2
1.133000E-7	1.371213E-2
1.133500E-7	1.377208E-2
1.134000E-7	1.379777E-2
1.134500E-7	1.381490E-2
1.135000E-7	1.388342E-2
1.135500E-7	1.396907E-2
1.136000E-7	1.397763E-2
1.136500E-7	1.392624E-2
1.137000E-7	1.388342E-2
1.137500E-7	1.384916E-2
1.138000E-7	1.372069E-2
1.138500E-7	1.357509E-2
1.139000E-7	1.345518E-2
1.139500E-7	1.333528E-2
1.140000E-7	1.319824E-2
1.140500E-7	1.316398E-2
1.141000E-7	1.318968E-2
1.141500E-7	1.320681E-2
1.142000E-7	1.320681E-2
1.142500E-7	1.319824E-2
1.143000E-7	1.318968E-2
1.143500E-7	1.320681E-2
1.144000E-7	1.318111E-2
1.144500E-7	1.312116E-2
1.145000E-7	1.312972E-2
1.145500E-7	1.318111E-2
1.146000E-7	1.312972E-2
1.146500E-7	1.304408E-2
1.147000E-7	1.303551E-2
1.147500E-7	1.306977E-2
1.148000E-7	1.309547E-2
1.148500E-7	1.315542E-2
1.149000E-7	1.323250E-2
1.149500E-7	1.330958E-2
1.150000E-7	1.340380E-2
1.150500E-7	1.344662E-2
1.151000E-7	1.344662E-2
1.151500E-7	1.349801E-2
1.152000E-7	1.353227E-2
1.152500E-7	1.347231E-2
1.153000E-7	1.341236E-2
1.153500E-7	1.338667E-2
1.154000E-7	1.330958E-2
1.154500E-7	1.319824E-2
1.155000E-7	1.317255E-2
1.155500E-7	1.315542E-2
1.156000E-7	1.309547E-2
1.156500E-7	1.304408E-2
1.157000E-7	1.304408E-2
1.157500E-7	1.301838E-2
1.158000E-7	1.299269E-2
1.158500E-7	1.300982E-2
1.159000E-7	1.300982E-2
1.159500E-7	1.295843E-2
1.160000E-7	1.288991E-2
1.160500E-7	1.279570E-2
1.161000E-7	1.266723E-2
1.161500E-7	1.259015E-2
1.162000E-7	1.250450E-2
1.162500E-7	1.231607E-2
1.163000E-7	1.218760E-2
1.163500E-7	1.217047E-2
1.164000E-7	1.211909E-2
1.164500E-7	1.208483E-2
1.165000E-7	1.219617E-2
1.165500E-7	1.236746E-2
1.166000E-7	1.243598E-2
1.166500E-7	1.257302E-2
1.167000E-7	1.276144E-2
1.167500E-7	1.285565E-2
1.168000E-7	1.289848E-2
1.168500E-7	1.298412E-2
1.169000E-7	1.301838E-2
1.169500E-7	1.297556E-2
1.170000E-7	1.296699E-2
1.170500E-7	1.296699E-2
1.171000E-7	1.294130E-2
1.171500E-7	1.296699E-2
1.172000E-7	1.299269E-2
1.172500E-7	1.298412E-2
1.173000E-7	1.303551E-2
1.173500E-7	1.319824E-2
1.174000E-7	1.329245E-2
1.174500E-7	1.327532E-2
1.175000E-7	1.327532E-2
1.175500E-7	1.332671E-2
1.176000E-7	1.329245E-2
1.176500E-7	1.319824E-2
1.177000E-7	1.312116E-2
1.177500E-7	1.304408E-2
1.178000E-7	1.288135E-2
1.178500E-7	1.272718E-2
1.179000E-7	1.267579E-2
1.179500E-7	1.263297E-2
1.180000E-7	1.253876E-2
1.180500E-7	1.249593E-2
1.181000E-7	1.256445E-2
1.181500E-7	1.265010E-2
1.182000E-7	1.269292E-2
1.182500E-7	1.273575E-2
1.183000E-7	1.279570E-2
1.183500E-7	1.284709E-2
1.184000E-7	1.286422E-2
1.184500E-7	1.280426E-2
1.185000E-7	1.271862E-2
1.185500E-7	1.268436E-2
1.186000E-7	1.263297E-2
1.186500E-7	1.248737E-2
1.187000E-7	1.235033E-2
1.187500E-7	1.228182E-2
1.188000E-7	1.215334E-2
1.188500E-7	1.201631E-2
1.189000E-7	1.199918E-2
1.189500E-7	1.205913E-2
1.190000E-7	1.204200E-2
1.190500E-7	1.205057E-2
1.191000E-7	1.220473E-2
1.191500E-7	1.238459E-2
1.192000E-7	1.244455E-2
1.192500E-7	1.248737E-2
1.193000E-7	1.255589E-2
1.193500E-7	1.257302E-2
1.194000E-7	1.249593E-2
1.194500E-7	1.240172E-2
1.195000E-7	1.233320E-2
1.195500E-7	1.222186E-2
1.196000E-7	1.203344E-2
1.196500E-7	1.181932E-2
1.197000E-7	1.169941E-2
1.197500E-7	1.163946E-2
1.198000E-7	1.151955E-2
1.198500E-7	1.136539E-2
1.199000E-7	1.135683E-2
1.199500E-7	1.144247E-2
1.200000E-7	1.150243E-2
1.200500E-7	1.155381E-2
1.201000E-7	1.169941E-2
1.201500E-7	1.184501E-2
1.202000E-7	1.193923E-2
1.202500E-7	1.201631E-2
1.203000E-7	1.213622E-2
1.203500E-7	1.220473E-2
1.204000E-7	1.219617E-2
1.204500E-7	1.219617E-2
1.205000E-7	1.221330E-2
1.205500E-7	1.220473E-2
1.206000E-7	1.208483E-2
1.206500E-7	1.195636E-2
1.207000E-7	1.194779E-2
1.207500E-7	1.197349E-2
1.208000E-7	1.191353E-2
1.208500E-7	1.188784E-2
1.209000E-7	1.196492E-2
1.209500E-7	1.203344E-2
1.210000E-7	1.206770E-2
1.210500E-7	1.214478E-2
1.211000E-7	1.227325E-2
1.211500E-7	1.237603E-2
1.212000E-7	1.245311E-2
1.212500E-7	1.251306E-2
1.213000E-7	1.256445E-2
1.213500E-7	1.257302E-2
1.214000E-7	1.256445E-2
1.214500E-7	1.253876E-2
1.215000E-7	1.251306E-2
1.215500E-7	1.241029E-2
1.216000E-7	1.227325E-2
1.216500E-7	1.216191E-2
1.217000E-7	1.209339E-2
1.217500E-7	1.199062E-2
1.218000E-7	1.185358E-2
1.218500E-7	1.174224E-2
1.219000E-7	1.164803E-2
1.219500E-7	1.156238E-2
1.220000E-7	1.145104E-2
1.220500E-7	1.137395E-2
1.221000E-7	1.135683E-2
1.221500E-7	1.134826E-2
1.222000E-7	1.127118E-2
1.222500E-7	1.121122E-2
1.223000E-7	1.126261E-2
1.223500E-7	1.133113E-2
1.224000E-7	1.138252E-2
1.224500E-7	1.144247E-2
1.225000E-7	1.155381E-2
1.225500E-7	1.162233E-2
1.226000E-7	1.156238E-2
1.226500E-7	1.147673E-2
1.227000E-7	1.146817E-2
1.227500E-7	1.143391E-2
1.228000E-7	1.130544E-2
1.228500E-7	1.115984E-2
1.229000E-7	1.105706E-2
1.229500E-7	1.094572E-2
1.230000E-7	1.085151E-2
1.230500E-7	1.085151E-2
1.231000E-7	1.090289E-2
1.231500E-7	1.095428E-2
1.232000E-7	1.099711E-2
1.232500E-7	1.103137E-2
1.233000E-7	1.104849E-2
1.233500E-7	1.111701E-2
1.234000E-7	1.117697E-2
1.234500E-7	1.114271E-2
1.235000E-7	1.113414E-2
1.235500E-7	1.116840E-2
1.236000E-7	1.109132E-2
1.236500E-7	1.089433E-2
1.237000E-7	1.079155E-2
1.237500E-7	1.080012E-2
1.238000E-7	1.074016E-2
1.238500E-7	1.066308E-2
1.239000E-7	1.070591E-2
1.239500E-7	1.076586E-2
1.240000E-7	1.076586E-2
1.240500E-7	1.080868E-2
1.241000E-7	1.088576E-2
1.241500E-7	1.092002E-2
1.242000E-7	1.091146E-2
1.242500E-7	1.092859E-2
1.243000E-7	1.098854E-2
1.243500E-7	1.103137E-2
1.244000E-7	1.103993E-2
1.244500E-7	1.107419E-2
1.245000E-7	1.116840E-2
1.245500E-7	1.128831E-2
1.246000E-7	1.133113E-2
1.246500E-7	1.138252E-2
1.247000E-7	1.151099E-2
1.247500E-7	1.158807E-2
1.248000E-7	1.157951E-2
1.248500E-7	1.161377E-2
1.249000E-7	1.165659E-2
1.249500E-7	1.157951E-2
1.250000E-7	1.151099E-2
1.250500E-7	1.153668E-2
1.251000E-7	1.152812E-2
1.251500E-7	1.145960E-2
1.252000E-7	1.144247E-2
1.252500E-7	1.143391E-2
1.253000E-7	1.137395E-2
1.253500E-7	1.131400E-2
1.254000E-7	1.122835E-2
1.254500E-7	1.114271E-2
1.255000E-7	1.109132E-2
1.255500E-7	1.102280E-2
1.256000E-7	1.086007E-2
1.256500E-7	1.071447E-2
1.257000E-7	1.067165E-2
1.257500E-7	1.056887E-2
1.258000E-7	1.039758E-2
1.258500E-7	1.033762E-2
1.259000E-7	1.036332E-2
1.259500E-7	1.038045E-2
1.260000E-7	1.041470E-2
1.260500E-7	1.047466E-2
1.261000E-7	1.057743E-2
1.261500E-7	1.071447E-2
1.262000E-7	1.082581E-2
1.262500E-7	1.085151E-2
1.263000E-7	1.087720E-2
1.263500E-7	1.094572E-2
1.264000E-7	1.099711E-2
1.264500E-7	1.102280E-2
1.265000E-7	1.104849E-2
1.265500E-7	1.103137E-2
1.266000E-7	1.094572E-2
1.266500E-7	1.088576E-2
1.267000E-7	1.086007E-2
1.267500E-7	1.080868E-2
1.268000E-7	1.074016E-2
1.268500E-7	1.071447E-2
1.269000E-7	1.075729E-2
1.269500E-7	1.080868E-2
1.270000E-7	1.082581E-2
1.270500E-7	1.082581E-2
1.271000E-7	1.086864E-2
1.271500E-7	1.086007E-2
1.272000E-7	1.077442E-2
1.272500E-7	1.071447E-2
1.273000E-7	1.072304E-2
1.273500E-7	1.068878E-2
1.274000E-7	1.055174E-2
1.274500E-7	1.042327E-2
1.275000E-7	1.038045E-2
1.275500E-7	1.038045E-2
1.276000E-7	1.039758E-2
1.276500E-7	1.043183E-2
1.277000E-7	1.047466E-2
1.277500E-7	1.050892E-2
1.278000E-7	1.055174E-2
1.278500E-7	1.058600E-2
1.279000E-7	1.062026E-2
1.279500E-7	1.065452E-2
1.280000E-7	1.058600E-2
1.280500E-7	1.045753E-2
1.281000E-7	1.042327E-2
1.281500E-7	1.041470E-2
1.282000E-7	1.028623E-2
1.282500E-7	1.010637E-2
1.283000E-7	1.003786E-2
1.283500E-7	1.002929E-2
1.284000E-7	9.986468E-3
1.284500E-7	9.995033E-3
1.285000E-7	1.008068E-2
1.285500E-7	1.016633E-2
1.286000E-7	1.024341E-2
1.286500E-7	1.032906E-2
1.287000E-7	1.040614E-2
1.287500E-7	1.046609E-2
1.288000E-7	1.054318E-2
1.288500E-7	1.053461E-2
1.289000E-7	1.049179E-2
1.289500E-7	1.050035E-2
1.290000E-7	1.047466E-2
1.290500E-7	1.038045E-2
1.291000E-7	1.033762E-2
1.291500E-7	1.034619E-2
1.292000E-7	1.032049E-2
1.292500E-7	1.029480E-2
1.293000E-7	1.032049E-2
1.293500E-7	1.032906E-2
1.294000E-7	1.027767E-2
1.294500E-7	1.028623E-2
1.295000E-7	1.036332E-2
1.295500E-7	1.038045E-2
1.296000E-7	1.029480E-2
1.296500E-7	1.020059E-2
1.297000E-7	1.015776E-2
1.297500E-7	1.008068E-2
1.298000E-7	9.892256E-3
1.298500E-7	9.720962E-3
1.299000E-7	9.635314E-3
1.299500E-7	9.541102E-3
1.300000E-7	9.369808E-3
1.300500E-7	9.232772E-3
1.301000E-7	9.198513E-3
1.301500E-7	9.164254E-3
1.302000E-7	9.147125E-3
1.302500E-7	9.189948E-3
1.303000E-7	9.292725E-3
1.303500E-7	9.386937E-3
1.304000E-7	9.489714E-3
1.304500E-7	9.575361E-3
1.305000E-7	9.652444E-3
1.305500E-7	9.720962E-3
1.306000E-7	9.755221E-3
1.306500E-7	9.755221E-3
1.307000E-7	9.755221E-3
1.307500E-7	9.712397E-3
1.308000E-7	9.583926E-3
1.308500E-7	9.421196E-3
1.309000E-7	9.352678E-3
1.309500E-7	9.352678E-3
1.310000E-7	9.267031E-3
1.310500E-7	9.147125E-3
1.311000E-7	9.138560E-3
1.311500E-7	9.215643E-3
1.312000E-7	9.267031E-3
1.312500E-7	9.292725E-3
1.313000E-7	9.404067E-3
1.313500E-7	9.549667E-3
1.314000E-7	9.669573E-3
1.314500E-7	9.789480E-3
1.315000E-7	9.917951E-3
1.315500E-7	9.969339E-3
1.316000E-7	9.900821E-3
1.316500E-7	9.789480E-3
1.317000E-7	9.703832E-3
1.317500E-7	9.626750E-3
1.318000E-7	9.489714E-3
1.318500E-7	9.344114E-3
1.319000E-7	9.207078E-3
1.319500E-7	9.138560E-3
1.320000E-7	9.104301E-3
1.320500E-7	9.104301E-3
1.321000E-7	9.138560E-3
1.321500E-7	9.215643E-3
1.322000E-7	9.309855E-3
1.322500E-7	9.395502E-3
1.323000E-7	9.489714E-3
1.323500E-7	9.592491E-3
1.324000E-7	9.618185E-3
1.324500E-7	9.609620E-3
1.325000E-7	9.652444E-3
1.325500E-7	9.729526E-3
1.326000E-7	9.712397E-3
1.326500E-7	9.652444E-3
1.327000E-7	9.661009E-3
1.327500E-7	9.661009E-3
1.328000E-7	9.575361E-3
1.328500E-7	9.472585E-3
1.329000E-7	9.404067E-3
1.329500E-7	9.318419E-3
1.330000E-7	9.207078E-3
1.330500E-7	9.095736E-3
1.331000E-7	9.027219E-3
1.331500E-7	8.984395E-3
1.332000E-7	8.933007E-3
1.332500E-7	8.898748E-3
1.333000E-7	8.907312E-3
1.333500E-7	8.967266E-3
1.334000E-7	9.018654E-3
1.334500E-7	9.044348E-3
1.335000E-7	9.138560E-3
1.335500E-7	9.258466E-3
1.336000E-7	9.352678E-3
1.336500E-7	9.429761E-3
1.337000E-7	9.532538E-3
1.337500E-7	9.566797E-3
1.338000E-7	9.523973E-3
1.338500E-7	9.455455E-3
1.339000E-7	9.412631E-3
1.339500E-7	9.301290E-3
1.340000E-7	9.129995E-3
1.340500E-7	8.984395E-3
1.341000E-7	8.847359E-3
1.341500E-7	8.701759E-3
1.342000E-7	8.547594E-3
1.342500E-7	8.384864E-3
1.343000E-7	8.256393E-3
1.343500E-7	8.213569E-3
1.344000E-7	8.213569E-3
1.344500E-7	8.247828E-3
1.345000E-7	8.359170E-3
1.345500E-7	8.530464E-3
1.346000E-7	8.658935E-3
1.346500E-7	8.813100E-3
1.347000E-7	9.027219E-3
1.347500E-7	9.181384E-3
1.348000E-7	9.232772E-3
1.348500E-7	9.249902E-3
1.349000E-7	9.249902E-3
1.349500E-7	9.232772E-3
1.350000E-7	9.172819E-3
1.350500E-7	9.129995E-3
1.351000E-7	9.138560E-3
1.351500E-7	9.207078E-3
1.352000E-7	9.207078E-3
1.352500E-7	9.181384E-3
1.353000E-7	9.249902E-3
1.353500E-7	9.369808E-3
1.354000E-7	9.395502E-3
1.354500E-7	9.386937E-3
1.355000E-7	9.498279E-3
1.355500E-7	9.575361E-3
1.356000E-7	9.498279E-3
1.356500E-7	9.412631E-3
1.357000E-7	9.421196E-3
1.357500E-7	9.378373E-3
1.358000E-7	9.215643E-3
1.358500E-7	9.044348E-3
1.359000E-7	8.950136E-3
1.359500E-7	8.873053E-3
1.360000E-7	8.778841E-3
1.360500E-7	8.693194E-3
1.361000E-7	8.658935E-3
1.361500E-7	8.658935E-3
1.362000E-7	8.607547E-3
1.362500E-7	8.521900E-3
1.363000E-7	8.470511E-3
1.363500E-7	8.496205E-3
1.364000E-7	8.496205E-3
1.364500E-7	8.479076E-3
1.365000E-7	8.513335E-3
1.365500E-7	8.573288E-3
1.366000E-7	8.573288E-3
1.366500E-7	8.573288E-3
1.367000E-7	8.616112E-3
1.367500E-7	8.701759E-3
1.368000E-7	8.770277E-3
1.368500E-7	8.795971E-3
1.369000E-7	8.795971E-3
1.369500E-7	8.813100E-3
1.370000E-7	8.821665E-3
1.370500E-7	8.778841E-3
1.371000E-7	8.744583E-3
1.371500E-7	8.770277E-3
1.372000E-7	8.753147E-3
1.372500E-7	8.701759E-3
1.373000E-7	8.744583E-3
1.373500E-7	8.847359E-3
1.374000E-7	8.864489E-3
1.374500E-7	8.890183E-3
1.375000E-7	9.001524E-3
1.375500E-7	9.052913E-3
1.376000E-7	8.992960E-3
1.376500E-7	8.933007E-3
1.377000E-7	8.915877E-3
1.377500E-7	8.890183E-3
1.378000E-7	8.778841E-3
1.378500E-7	8.633241E-3
1.379000E-7	8.539029E-3
1.379500E-7	8.487641E-3
1.380000E-7	8.384864E-3
1.380500E-7	8.273522E-3
1.381000E-7	8.264958E-3
1.381500E-7	8.290652E-3
1.382000E-7	8.256393E-3
1.382500E-7	8.213569E-3
1.383000E-7	8.273522E-3
1.383500E-7	8.367734E-3
1.384000E-7	8.393429E-3
1.384500E-7	8.410558E-3
1.385000E-7	8.479076E-3
1.385500E-7	8.556158E-3
1.386000E-7	8.590417E-3
1.386500E-7	8.641806E-3
1.387000E-7	8.727453E-3
1.387500E-7	8.830230E-3
1.388000E-7	8.881618E-3
1.388500E-7	8.864489E-3
1.389000E-7	8.838795E-3
1.389500E-7	8.881618E-3
1.390000E-7	8.898748E-3
1.390500E-7	8.855924E-3
1.391000E-7	8.855924E-3
1.391500E-7	8.941571E-3
1.392000E-7	9.001524E-3
1.392500E-7	9.010089E-3
1.393000E-7	9.061478E-3
1.393500E-7	9.129995E-3
1.394000E-7	9.121431E-3
1.394500E-7	9.095736E-3
1.395000E-7	9.121431E-3
1.395500E-7	9.095736E-3
1.396000E-7	9.001524E-3
1.396500E-7	8.898748E-3
1.397000E-7	8.804536E-3
1.397500E-7	8.676065E-3
1.398000E-7	8.513335E-3
1.398500E-7	8.350605E-3
1.399000E-7	8.247828E-3
1.399500E-7	8.205005E-3
1.400000E-7	8.145051E-3
1.400500E-7	8.059404E-3
1.401000E-7	7.999451E-3
1.401500E-7	7.990886E-3
1.402000E-7	7.939498E-3
1.402500E-7	7.888110E-3
1.403000E-7	7.888110E-3
1.403500E-7	7.905239E-3
1.404000E-7	7.922368E-3
1.404500E-7	7.956627E-3
1.405000E-7	8.025145E-3
1.405500E-7	8.102228E-3
1.406000E-7	8.187875E-3
1.406500E-7	8.273522E-3
1.407000E-7	8.324911E-3
1.407500E-7	8.359170E-3
1.408000E-7	8.367734E-3
1.408500E-7	8.324911E-3
1.409000E-7	8.282087E-3
1.409500E-7	8.264958E-3
1.410000E-7	8.196440E-3
1.410500E-7	8.059404E-3
1.411000E-7	7.982322E-3
1.411500E-7	7.973757E-3
1.412000E-7	7.939498E-3
1.412500E-7	7.853851E-3
1.413000E-7	7.811027E-3
1.413500E-7	7.845286E-3
1.414000E-7	7.888110E-3
1.414500E-7	7.922368E-3
1.415000E-7	7.990886E-3
1.415500E-7	8.059404E-3
1.416000E-7	8.076534E-3
1.416500E-7	8.093663E-3
1.417000E-7	8.153616E-3
1.417500E-7	8.239263E-3
1.418000E-7	8.299217E-3
1.418500E-7	8.316346E-3
1.419000E-7	8.342040E-3
1.419500E-7	8.419123E-3
1.420000E-7	8.453382E-3
1.420500E-7	8.453382E-3
1.421000E-7	8.461946E-3
1.421500E-7	8.461946E-3
1.422000E-7	8.384864E-3
1.422500E-7	8.290652E-3
1.423000E-7	8.187875E-3
1.423500E-7	8.059404E-3
1.424000E-7	7.870980E-3
1.424500E-7	7.708250E-3
1.425000E-7	7.605473E-3
1.425500E-7	7.502697E-3
1.426000E-7	7.365661E-3
1.426500E-7	7.245755E-3
1.427000E-7	7.245755E-3
1.427500E-7	7.339967E-3
1.428000E-7	7.391355E-3
1.428500E-7	7.425614E-3
1.429000E-7	7.545520E-3
1.429500E-7	7.716815E-3
1.430000E-7	7.819592E-3
1.430500E-7	7.930933E-3
1.431000E-7	8.085098E-3
1.431500E-7	8.239263E-3
1.432000E-7	8.324911E-3
1.432500E-7	8.367734E-3
1.433000E-7	8.384864E-3
1.433500E-7	8.419123E-3
1.434000E-7	8.436252E-3
1.434500E-7	8.401993E-3
1.435000E-7	8.350605E-3
1.435500E-7	8.307781E-3
1.436000E-7	8.230699E-3
1.436500E-7	8.076534E-3
1.437000E-7	7.939498E-3
1.437500E-7	7.845286E-3
1.438000E-7	7.708250E-3
1.438500E-7	7.545520E-3
1.439000E-7	7.468438E-3
1.439500E-7	7.451308E-3
1.440000E-7	7.374226E-3
1.440500E-7	7.262884E-3
1.441000E-7	7.271449E-3
1.441500E-7	7.391355E-3
1.442000E-7	7.468438E-3
1.442500E-7	7.494132E-3
1.443000E-7	7.554085E-3
1.443500E-7	7.648297E-3
1.444000E-7	7.656862E-3
1.444500E-7	7.596909E-3
1.445000E-7	7.554085E-3
1.445500E-7	7.536956E-3
1.446000E-7	7.434179E-3
1.446500E-7	7.262884E-3
1.447000E-7	7.168672E-3
1.447500E-7	7.100154E-3
1.448000E-7	6.954554E-3
1.448500E-7	6.826083E-3
1.449000E-7	6.817518E-3
1.449500E-7	6.843213E-3
1.450000E-7	6.800389E-3
1.450500E-7	6.860342E-3
1.451000E-7	7.014507E-3
1.451500E-7	7.134413E-3
1.452000E-7	7.220061E-3
1.452500E-7	7.331402E-3
1.453000E-7	7.468438E-3
1.453500E-7	7.562650E-3
1.454000E-7	7.639732E-3
1.454500E-7	7.691121E-3
1.455000E-7	7.725380E-3
1.455500E-7	7.751074E-3
1.456000E-7	7.751074E-3
1.456500E-7	7.691121E-3
1.457000E-7	7.682556E-3
1.457500E-7	7.716815E-3
1.458000E-7	7.716815E-3
1.458500E-7	7.682556E-3
1.459000E-7	7.725380E-3
1.459500E-7	7.811027E-3
1.460000E-7	7.853851E-3
1.460500E-7	7.879545E-3
1.461000E-7	7.922368E-3
1.461500E-7	7.982322E-3
1.462000E-7	8.016580E-3
1.462500E-7	8.008016E-3
1.463000E-7	8.008016E-3
1.463500E-7	8.042275E-3
1.464000E-7	8.050839E-3
1.464500E-7	8.008016E-3
1.465000E-7	7.982322E-3
1.465500E-7	7.930933E-3
1.466000E-7	7.793898E-3
1.466500E-7	7.682556E-3
1.467000E-7	7.673991E-3
1.467500E-7	7.665427E-3
1.468000E-7	7.596909E-3
1.468500E-7	7.562650E-3
1.469000E-7	7.622603E-3
1.469500E-7	7.622603E-3
1.470000E-7	7.554085E-3
1.470500E-7	7.571215E-3
1.471000E-7	7.682556E-3
1.471500E-7	7.708250E-3
1.472000E-7	7.648297E-3
1.472500E-7	7.648297E-3
1.473000E-7	7.708250E-3
1.473500E-7	7.691121E-3
1.474000E-7	7.648297E-3
1.474500E-7	7.614038E-3
1.475000E-7	7.605473E-3
1.475500E-7	7.605473E-3
1.476000E-7	7.545520E-3
1.476500E-7	7.451308E-3
1.477000E-7	7.408485E-3
1.477500E-7	7.357096E-3
1.478000E-7	7.185802E-3
1.478500E-7	6.954554E-3
1.479000E-7	6.783259E-3
1.479500E-7	6.646224E-3
1.480000E-7	6.483494E-3
1.480500E-7	6.329329E-3
1.481000E-7	6.217987E-3
1.481500E-7	6.132340E-3
1.482000E-7	6.055257E-3
1.482500E-7	6.072387E-3
1.483000E-7	6.226552E-3
1.483500E-7	6.457800E-3
1.484000E-7	6.646224E-3
1.484500E-7	6.791824E-3
1.485000E-7	6.988813E-3
1.485500E-7	7.194366E-3
1.486000E-7	7.262884E-3
1.486500E-7	7.202931E-3
1.487000E-7	7.160108E-3
1.487500E-7	7.117284E-3
1.488000E-7	7.014507E-3
1.488500E-7	6.894601E-3
1.489000E-7	6.817518E-3
1.489500E-7	6.774695E-3
1.490000E-7	6.731871E-3
1.490500E-7	6.766130E-3
1.491000E-7	6.894601E-3
1.491500E-7	7.057331E-3
1.492000E-7	7.185802E-3
1.492500E-7	7.314273E-3
1.493000E-7	7.451308E-3
1.493500E-7	7.554085E-3
1.494000E-7	7.596909E-3
1.494500E-7	7.614038E-3
1.495000E-7	7.631168E-3
1.495500E-7	7.579779E-3
1.496000E-7	7.442744E-3
1.496500E-7	7.314273E-3
1.497000E-7	7.237190E-3
1.497500E-7	7.142978E-3
1.498000E-7	6.971683E-3
1.498500E-7	6.843213E-3
1.499000E-7	6.817518E-3
1.499500E-7	6.817518E-3
1.500000E-7	6.766130E-3
1.500500E-7	6.731871E-3
1.501000E-7	6.757565E-3
1.501500E-7	6.774695E-3
1.502000E-7	6.723306E-3
1.502500E-7	6.680483E-3
1.503000E-7	6.671918E-3
1.503500E-7	6.629094E-3
1.504000E-7	6.526318E-3
1.504500E-7	6.423541E-3
1.505000E-7	6.363588E-3
1.505500E-7	6.320764E-3
1.506000E-7	6.235117E-3
1.506500E-7	6.158034E-3
1.507000E-7	6.149469E-3
1.507500E-7	6.158034E-3
1.508000E-7	6.098081E-3
1.508500E-7	6.029563E-3
1.509000E-7	6.046693E-3
1.509500E-7	6.106646E-3
1.510000E-7	6.106646E-3
1.510500E-7	6.080952E-3
1.511000E-7	6.140905E-3
1.511500E-7	6.209423E-3
1.512000E-7	6.183728E-3
1.512500E-7	6.106646E-3
1.513000E-7	6.080952E-3
1.513500E-7	6.080952E-3
1.514000E-7	6.089516E-3
1.514500E-7	6.140905E-3
1.515000E-7	6.235117E-3
1.515500E-7	6.320764E-3
1.516000E-7	6.363588E-3
1.516500E-7	6.423541E-3
1.517000E-7	6.534882E-3
1.517500E-7	6.671918E-3
1.518000E-7	6.757565E-3
1.518500E-7	6.774695E-3
1.519000E-7	6.826083E-3
1.519500E-7	6.920295E-3
1.520000E-7	6.920295E-3
1.520500E-7	6.800389E-3
1.521000E-7	6.671918E-3
1.521500E-7	6.560576E-3
1.522000E-7	6.406411E-3
1.522500E-7	6.243681E-3
1.523000E-7	6.089516E-3
1.523500E-7	5.961045E-3
1.524000E-7	5.849704E-3
1.524500E-7	5.798315E-3
1.525000E-7	5.798315E-3
1.525500E-7	5.849704E-3
1.526000E-7	5.909657E-3
1.526500E-7	5.986740E-3
1.527000E-7	6.106646E-3
1.527500E-7	6.277940E-3
1.528000E-7	6.363588E-3
1.528500E-7	6.363588E-3
1.529000E-7	6.355023E-3
1.529500E-7	6.346458E-3
1.530000E-7	6.235117E-3
1.530500E-7	6.089516E-3
1.531000E-7	6.012434E-3
1.531500E-7	5.918222E-3
1.532000E-7	5.781186E-3
1.532500E-7	5.721233E-3
1.533000E-7	5.781186E-3
1.533500E-7	5.841139E-3
1.534000E-7	5.858269E-3
1.534500E-7	5.892528E-3
1.535000E-7	5.961045E-3
1.535500E-7	6.063822E-3
1.536000E-7	6.140905E-3
1.536500E-7	6.140905E-3
1.537000E-7	6.098081E-3
1.537500E-7	6.072387E-3
1.538000E-7	6.003869E-3
1.538500E-7	5.901092E-3
1.539000E-7	5.832574E-3
1.539500E-7	5.781186E-3
1.540000E-7	5.686974E-3
1.540500E-7	5.618456E-3
1.541000E-7	5.627021E-3
1.541500E-7	5.669845E-3
1.542000E-7	5.729798E-3
1.542500E-7	5.781186E-3
1.543000E-7	5.815445E-3
1.543500E-7	5.883963E-3
1.544000E-7	5.943916E-3
1.544500E-7	5.952481E-3
1.545000E-7	5.961045E-3
1.545500E-7	6.038128E-3
1.546000E-7	6.072387E-3
1.546500E-7	6.038128E-3
1.547000E-7	6.063822E-3
1.547500E-7	6.149469E-3
1.548000E-7	6.217987E-3
1.548500E-7	6.277940E-3
1.549000E-7	6.363588E-3
1.549500E-7	6.432105E-3
1.550000E-7	6.466364E-3
1.550500E-7	6.552012E-3
1.551000E-7	6.663353E-3
1.551500E-7	6.671918E-3
1.552000E-7	6.611965E-3
1.552500E-7	6.577706E-3
1.553000E-7	6.577706E-3
1.553500E-7	6.517753E-3
1.554000E-7	6.423541E-3
1.554500E-7	6.355023E-3
1.555000E-7	6.320764E-3
1.555500E-7	6.295070E-3
1.556000E-7	6.243681E-3
1.556500E-7	6.166599E-3
1.557000E-7	6.106646E-3
1.557500E-7	6.055257E-3
1.558000E-7	5.926786E-3
1.558500E-7	5.798315E-3
1.559000E-7	5.746927E-3
1.559500E-7	5.695539E-3
1.560000E-7	5.584197E-3
1.560500E-7	5.515679E-3
1.561000E-7	5.549938E-3
1.561500E-7	5.618456E-3
1.562000E-7	5.678409E-3
1.562500E-7	5.738362E-3
1.563000E-7	5.866833E-3
1.563500E-7	6.020998E-3
1.564000E-7	6.140905E-3
1.564500E-7	6.175164E-3
1.565000E-7	6.209423E-3
1.565500E-7	6.260811E-3
1.566000E-7	6.260811E-3
1.566500E-7	6.200858E-3
1.567000E-7	6.200858E-3
1.567500E-7	6.192293E-3
1.568000E-7	6.072387E-3
1.568500E-7	5.943916E-3
1.569000E-7	5.935351E-3
1.569500E-7	5.943916E-3
1.570000E-7	5.918222E-3
1.570500E-7	5.892528E-3
1.571000E-7	5.892528E-3
1.571500E-7	5.901092E-3
1.572000E-7	5.926786E-3
1.572500E-7	5.969610E-3
1.573000E-7	5.986740E-3
1.573500E-7	5.952481E-3
1.574000E-7	5.901092E-3
1.574500E-7	5.875398E-3
1.575000E-7	5.892528E-3
1.575500E-7	5.909657E-3
1.576000E-7	5.875398E-3
1.576500E-7	5.781186E-3
1.577000E-7	5.772621E-3
1.577500E-7	5.806880E-3
1.578000E-7	5.764057E-3
1.578500E-7	5.686974E-3
1.579000E-7	5.669845E-3
1.579500E-7	5.678409E-3
1.580000E-7	5.652715E-3
1.580500E-7	5.661280E-3
1.581000E-7	5.686974E-3
1.581500E-7	5.695539E-3
1.582000E-7	5.669845E-3
1.582500E-7	5.661280E-3
1.583000E-7	5.661280E-3
1.583500E-7	5.669845E-3
1.584000E-7	5.678409E-3
1.584500E-7	5.678409E-3
1.585000E-7	5.704103E-3
1.585500E-7	5.704103E-3
1.586000E-7	5.627021E-3
1.586500E-7	5.575633E-3
1.587000E-7	5.635586E-3
1.587500E-7	5.669845E-3
1.588000E-7	5.609891E-3
1.588500E-7	5.549938E-3
1.589000E-7	5.541374E-3
1.589500E-7	5.541374E-3
1.590000E-7	5.481420E-3
1.590500E-7	5.404338E-3
1.591000E-7	5.352950E-3
1.591500E-7	5.378644E-3
1.592000E-7	5.430032E-3
1.592500E-7	5.481420E-3
1.593000E-7	5.524244E-3
1.593500E-7	5.584197E-3
1.594000E-7	5.704103E-3
1.594500E-7	5.841139E-3
1.595000E-7	5.943916E-3
1.595500E-7	5.995304E-3
1.596000E-7	6.046693E-3
1.596500E-7	6.072387E-3
1.597000E-7	6.020998E-3
1.597500E-7	5.909657E-3
1.598000E-7	5.798315E-3
1.598500E-7	5.601327E-3
1.599000E-7	5.361514E-3
1.599500E-7	5.198784E-3
1.600000E-7	5.096008E-3
1.600500E-7	4.958972E-3
1.601000E-7	4.890454E-3
1.601500E-7	4.941843E-3
1.602000E-7	5.010360E-3
1.602500E-7	5.070313E-3
1.603000E-7	5.207349E-3
1.603500E-7	5.378644E-3
1.604000E-7	5.515679E-3
1.604500E-7	5.644150E-3
1.605000E-7	5.712668E-3
1.605500E-7	5.721233E-3
1.606000E-7	5.729798E-3
1.606500E-7	5.721233E-3
1.607000E-7	5.669845E-3
1.607500E-7	5.592762E-3
1.608000E-7	5.549938E-3
1.608500E-7	5.489985E-3
1.609000E-7	5.472856E-3
1.609500E-7	5.532809E-3
1.610000E-7	5.575633E-3
1.610500E-7	5.609891E-3
1.611000E-7	5.712668E-3
1.611500E-7	5.875398E-3
1.612000E-7	5.995304E-3
1.612500E-7	6.106646E-3
1.613000E-7	6.209423E-3
1.613500E-7	6.209423E-3
1.614000E-7	6.166599E-3
1.614500E-7	6.158034E-3
1.615000E-7	6.140905E-3
1.615500E-7	6.046693E-3
1.616000E-7	5.866833E-3
1.616500E-7	5.669845E-3
1.617000E-7	5.481420E-3
1.617500E-7	5.361514E-3
1.618000E-7	5.258738E-3
1.618500E-7	5.130267E-3
1.619000E-7	5.070313E-3
1.619500E-7	5.121702E-3
1.620000E-7	5.198784E-3
1.620500E-7	5.301561E-3
1.621000E-7	5.524244E-3
1.621500E-7	5.746927E-3
1.622000E-7	5.892528E-3
1.622500E-7	6.029563E-3
1.623000E-7	6.158034E-3
1.623500E-7	6.235117E-3
1.624000E-7	6.295070E-3
1.624500E-7	6.277940E-3
1.625000E-7	6.140905E-3
1.625500E-7	5.978175E-3
1.626000E-7	5.875398E-3
1.626500E-7	5.746927E-3
1.627000E-7	5.601327E-3
1.627500E-7	5.515679E-3
1.628000E-7	5.404338E-3
1.628500E-7	5.292996E-3
1.629000E-7	5.275867E-3
1.629500E-7	5.352950E-3
1.630000E-7	5.438597E-3
1.630500E-7	5.524244E-3
1.631000E-7	5.669845E-3
1.631500E-7	5.789751E-3
1.632000E-7	5.875398E-3
1.632500E-7	5.909657E-3
1.633000E-7	5.883963E-3
1.633500E-7	5.815445E-3
1.634000E-7	5.746927E-3
1.634500E-7	5.627021E-3
1.635000E-7	5.498550E-3
1.635500E-7	5.438597E-3
1.636000E-7	5.344385E-3
1.636500E-7	5.173090E-3
1.637000E-7	5.044619E-3
1.637500E-7	5.018925E-3
1.638000E-7	4.967537E-3
1.638500E-7	4.916148E-3
1.639000E-7	4.941843E-3
1.639500E-7	4.984666E-3
1.640000E-7	4.967537E-3
1.640500E-7	4.950407E-3
1.641000E-7	4.976101E-3
1.641500E-7	4.950407E-3
1.642000E-7	4.873325E-3
1.642500E-7	4.847630E-3
1.643000E-7	4.830501E-3
1.643500E-7	4.796242E-3
1.644000E-7	4.761983E-3
1.644500E-7	4.761983E-3
1.645000E-7	4.787677E-3
1.645500E-7	4.839066E-3
1.646000E-7	4.907584E-3
1.646500E-7	4.933278E-3
1.647000E-7	4.976101E-3
1.647500E-7	5.061749E-3
1.648000E-7	5.138831E-3
1.648500E-7	5.181655E-3
1.649000E-7	5.241608E-3
1.649500E-7	5.301561E-3
1.650000E-7	5.327255E-3
1.650500E-7	5.387208E-3
1.651000E-7	5.455726E-3
1.651500E-7	5.489985E-3
1.652000E-7	5.472856E-3
1.652500E-7	5.430032E-3
1.653000E-7	5.378644E-3
1.653500E-7	5.310126E-3
1.654000E-7	5.173090E-3
1.654500E-7	4.993231E-3
1.655000E-7	4.881889E-3
1.655500E-7	4.830501E-3
1.656000E-7	4.727724E-3
1.656500E-7	4.633512E-3
1.657000E-7	4.684901E-3
1.657500E-7	4.744854E-3
1.658000E-7	4.693465E-3
1.658500E-7	4.642077E-3
1.659000E-7	4.710595E-3
1.659500E-7	4.830501E-3
1.660000E-7	4.864760E-3
1.660500E-7	4.839066E-3
1.661000E-7	4.813372E-3
1.661500E-7	4.847630E-3
1.662000E-7	4.813372E-3
1.662500E-7	4.770548E-3
1.663000E-7	4.821936E-3
1.663500E-7	4.881889E-3
1.664000E-7	4.899019E-3
1.664500E-7	4.950407E-3
1.665000E-7	5.078878E-3
1.665500E-7	5.190220E-3
1.666000E-7	5.318691E-3
1.666500E-7	5.489985E-3
1.667000E-7	5.644150E-3
1.667500E-7	5.729798E-3
1.668000E-7	5.815445E-3
1.668500E-7	5.883963E-3
1.669000E-7	5.952481E-3
1.669500E-7	6.003869E-3
1.670000E-7	5.961045E-3
1.670500E-7	5.841139E-3
1.671000E-7	5.738362E-3
1.671500E-7	5.635586E-3
1.672000E-7	5.447162E-3
1.672500E-7	5.233043E-3
1.673000E-7	5.044619E-3
1.673500E-7	4.873325E-3
1.674000E-7	4.719160E-3
1.674500E-7	4.633512E-3
1.675000E-7	4.642077E-3
1.675500E-7	4.667771E-3
1.676000E-7	4.659206E-3
1.676500E-7	4.710595E-3
1.677000E-7	4.830501E-3
1.677500E-7	4.976101E-3
1.678000E-7	5.087443E-3
1.678500E-7	5.207349E-3
1.679000E-7	5.292996E-3
1.679500E-7	5.344385E-3
1.680000E-7	5.412903E-3
1.680500E-7	5.464291E-3
1.681000E-7	5.404338E-3
1.681500E-7	5.292996E-3
1.682000E-7	5.207349E-3
1.682500E-7	5.113137E-3
1.683000E-7	5.044619E-3
1.683500E-7	4.941843E-3
1.684000E-7	4.753418E-3
1.684500E-7	4.590689E-3
1.685000E-7	4.556430E-3
1.685500E-7	4.547865E-3
1.686000E-7	4.539300E-3
1.686500E-7	4.599253E-3
1.687000E-7	4.719160E-3
1.687500E-7	4.830501E-3
1.688000E-7	4.958972E-3
1.688500E-7	5.104572E-3
1.689000E-7	5.215914E-3
1.689500E-7	5.275867E-3
1.690000E-7	5.267302E-3
1.690500E-7	5.181655E-3
1.691000E-7	5.078878E-3
1.691500E-7	4.916148E-3
1.692000E-7	4.650642E-3
1.692500E-7	4.419394E-3
1.693000E-7	4.325182E-3
1.693500E-7	4.213840E-3
1.694000E-7	4.051111E-3
1.694500E-7	3.982593E-3
1.695000E-7	4.033981E-3
1.695500E-7	4.119628E-3
1.696000E-7	4.222405E-3
1.696500E-7	4.385135E-3
1.697000E-7	4.590689E-3
1.697500E-7	4.787677E-3
1.698000E-7	4.864760E-3
1.698500E-7	4.873325E-3
1.699000E-7	4.890454E-3
1.699500E-7	4.933278E-3
1.700000E-7	4.933278E-3
1.700500E-7	4.864760E-3
1.701000E-7	4.787677E-3
1.701500E-7	4.702030E-3
1.702000E-7	4.599253E-3
1.702500E-7	4.530735E-3
1.703000E-7	4.513606E-3
1.703500E-7	4.530735E-3
1.704000E-7	4.582124E-3
1.704500E-7	4.667771E-3
1.705000E-7	4.770548E-3
1.705500E-7	4.899019E-3
1.706000E-7	5.044619E-3
1.706500E-7	5.164525E-3
1.707000E-7	5.224479E-3
1.707500E-7	5.292996E-3
1.708000E-7	5.327255E-3
1.708500E-7	5.310126E-3
1.709000E-7	5.292996E-3
1.709500E-7	5.258738E-3
1.710000E-7	5.190220E-3
1.710500E-7	5.138831E-3
1.711000E-7	5.113137E-3
1.711500E-7	5.044619E-3
1.712000E-7	4.976101E-3
1.712500E-7	4.967537E-3
1.713000E-7	4.958972E-3
1.713500E-7	4.907584E-3
1.714000E-7	4.924713E-3
1.714500E-7	4.984666E-3
1.715000E-7	5.044619E-3
1.715500E-7	5.113137E-3
1.716000E-7	5.190220E-3
1.716500E-7	5.164525E-3
1.717000E-7	5.096008E-3
1.717500E-7	5.104572E-3
1.718000E-7	5.027490E-3
1.718500E-7	4.847630E-3
1.719000E-7	4.719160E-3
1.719500E-7	4.616383E-3
1.720000E-7	4.427959E-3
1.720500E-7	4.222405E-3
1.721000E-7	4.111064E-3
1.721500E-7	4.016852E-3
1.722000E-7	3.905510E-3
1.722500E-7	3.879816E-3
1.723000E-7	3.896945E-3
1.723500E-7	3.879816E-3
1.724000E-7	3.888381E-3
1.724500E-7	3.905510E-3
1.725000E-7	3.948334E-3
1.725500E-7	4.016852E-3
1.726000E-7	4.033981E-3
1.726500E-7	3.956899E-3
1.727000E-7	3.914075E-3
1.727500E-7	3.888381E-3
1.728000E-7	3.794169E-3
1.728500E-7	3.725651E-3
1.729000E-7	3.751345E-3
1.729500E-7	3.742780E-3
1.730000E-7	3.682827E-3
1.730500E-7	3.682827E-3
1.731000E-7	3.759910E-3
1.731500E-7	3.811298E-3
1.732000E-7	3.862687E-3
1.732500E-7	3.965463E-3
1.733000E-7	4.068240E-3
1.733500E-7	4.171017E-3
1.734000E-7	4.230970E-3
1.734500E-7	4.265229E-3
1.735000E-7	4.342311E-3
1.735500E-7	4.436523E-3
1.736000E-7	4.453653E-3
1.736500E-7	4.427959E-3
1.737000E-7	4.470782E-3
1.737500E-7	4.496477E-3
1.738000E-7	4.462218E-3
1.738500E-7	4.445088E-3
1.739000E-7	4.470782E-3
1.739500E-7	4.453653E-3
1.740000E-7	4.385135E-3
1.740500E-7	4.359441E-3
1.741000E-7	4.402265E-3
1.741500E-7	4.479347E-3
1.742000E-7	4.496477E-3
1.742500E-7	4.453653E-3
1.743000E-7	4.462218E-3
1.743500E-7	4.522171E-3
1.744000E-7	4.530735E-3
1.744500E-7	4.453653E-3
1.745000E-7	4.445088E-3
1.745500E-7	4.513606E-3
1.746000E-7	4.530735E-3
1.746500E-7	4.496477E-3
1.747000E-7	4.513606E-3
1.747500E-7	4.590689E-3
1.748000E-7	4.607818E-3
1.748500E-7	4.547865E-3
1.749000E-7	4.513606E-3
1.749500E-7	4.479347E-3
1.750000E-7	4.385135E-3
1.750500E-7	4.282358E-3
1.751000E-7	4.230970E-3
1.751500E-7	4.188146E-3
1.752000E-7	4.085370E-3
1.752500E-7	3.982593E-3
1.753000E-7	3.948334E-3
1.753500E-7	3.905510E-3
1.754000E-7	3.828428E-3
1.754500E-7	3.802733E-3
1.755000E-7	3.828428E-3
1.755500E-7	3.854122E-3
1.756000E-7	3.828428E-3
1.756500E-7	3.785604E-3
1.757000E-7	3.777039E-3
1.757500E-7	3.794169E-3
1.758000E-7	3.802733E-3
1.758500E-7	3.794169E-3
1.759000E-7	3.811298E-3
1.759500E-7	3.879816E-3
1.760000E-7	3.931204E-3
1.760500E-7	3.914075E-3
1.761000E-7	3.922640E-3
1.761500E-7	4.059675E-3
1.762000E-7	4.188146E-3
1.762500E-7	4.179582E-3
1.763000E-7	4.179582E-3
1.763500E-7	4.248099E-3
1.764000E-7	4.265229E-3
1.764500E-7	4.248099E-3
1.765000E-7	4.299488E-3
1.765500E-7	4.316617E-3
1.766000E-7	4.299488E-3
1.766500E-7	4.316617E-3
1.767000E-7	4.333747E-3
1.767500E-7	4.256664E-3
1.768000E-7	4.179582E-3
1.768500E-7	4.128193E-3
1.769000E-7	4.093934E-3
1.769500E-7	4.068240E-3
1.770000E-7	4.025416E-3
1.770500E-7	3.922640E-3
1.771000E-7	3.819863E-3
1.771500E-7	3.802733E-3
1.772000E-7	3.828428E-3
1.772500E-7	3.828428E-3
1.773000E-7	3.871251E-3
1.773500E-7	3.956899E-3
1.774000E-7	3.999722E-3
1.774500E-7	3.999722E-3
1.775000E-7	4.025416E-3
1.775500E-7	4.068240E-3
1.776000E-7	4.008287E-3
1.776500E-7	3.914075E-3
1.777000E-7	3.836992E-3
1.777500E-7	3.725651E-3
1.778000E-7	3.571486E-3
1.778500E-7	3.425885E-3
1.779000E-7	3.331673E-3
1.779500E-7	3.305979E-3
1.780000E-7	3.323109E-3
1.780500E-7	3.374497E-3
1.781000E-7	3.443015E-3
1.781500E-7	3.545792E-3
1.782000E-7	3.640004E-3
1.782500E-7	3.699957E-3
1.783000E-7	3.759910E-3
1.783500E-7	3.802733E-3
1.784000E-7	3.785604E-3
1.784500E-7	3.717086E-3
1.785000E-7	3.614309E-3
1.785500E-7	3.494403E-3
1.786000E-7	3.374497E-3
1.786500E-7	3.271720E-3
1.787000E-7	3.237461E-3
1.787500E-7	3.280285E-3
1.788000E-7	3.383062E-3
1.788500E-7	3.520097E-3
1.789000E-7	3.708521E-3
1.789500E-7	3.956899E-3
1.790000E-7	4.171017E-3
1.790500E-7	4.325182E-3
1.791000E-7	4.505041E-3
1.791500E-7	4.650642E-3
1.792000E-7	4.684901E-3
1.792500E-7	4.642077E-3
1.793000E-7	4.590689E-3
1.793500E-7	4.453653E-3
1.794000E-7	4.213840E-3
1.794500E-7	3.999722E-3
1.795000E-7	3.896945E-3
1.795500E-7	3.811298E-3
1.796000E-7	3.725651E-3
1.796500E-7	3.691392E-3
1.797000E-7	3.725651E-3
1.797500E-7	3.802733E-3
1.798000E-7	3.922640E-3
1.798500E-7	4.042546E-3
1.799000E-7	4.093934E-3
1.799500E-7	4.111064E-3
1.800000E-7	4.128193E-3
1.800500E-7	4.111064E-3
1.801000E-7	4.033981E-3
1.801500E-7	3.888381E-3
1.802000E-7	3.691392E-3
1.802500E-7	3.494403E-3
1.803000E-7	3.348803E-3
1.803500E-7	3.203202E-3
1.804000E-7	3.031908E-3
1.804500E-7	2.886307E-3
1.805000E-7	2.860613E-3
1.805500E-7	2.894872E-3
1.806000E-7	2.912002E-3
1.806500E-7	2.971955E-3
1.807000E-7	3.117555E-3
1.807500E-7	3.271720E-3
1.808000E-7	3.331673E-3
1.808500E-7	3.357367E-3
1.809000E-7	3.408756E-3
1.809500E-7	3.468709E-3
1.810000E-7	3.434450E-3
1.810500E-7	3.323109E-3
1.811000E-7	3.246026E-3
1.811500E-7	3.203202E-3
1.812000E-7	3.143249E-3
1.812500E-7	3.057602E-3
1.813000E-7	3.057602E-3
1.813500E-7	3.108990E-3
1.814000E-7	3.108990E-3
1.814500E-7	3.100426E-3
1.815000E-7	3.177508E-3
1.815500E-7	3.314544E-3
1.816000E-7	3.391626E-3
1.816500E-7	3.460144E-3
1.817000E-7	3.545792E-3
1.817500E-7	3.571486E-3
1.818000E-7	3.537227E-3
1.818500E-7	3.520097E-3
1.819000E-7	3.537227E-3
1.819500E-7	3.554356E-3
1.820000E-7	3.545792E-3
1.820500E-7	3.511533E-3
1.821000E-7	3.537227E-3
1.821500E-7	3.605745E-3
1.822000E-7	3.631439E-3
1.822500E-7	3.665698E-3
1.823000E-7	3.777039E-3
1.823500E-7	3.879816E-3
1.824000E-7	3.922640E-3
1.824500E-7	3.999722E-3
1.825000E-7	4.059675E-3
1.825500E-7	3.999722E-3
1.826000E-7	3.931204E-3
1.826500E-7	3.905510E-3
1.827000E-7	3.845557E-3
1.827500E-7	3.751345E-3
1.828000E-7	3.674262E-3
1.828500E-7	3.588615E-3
1.829000E-7	3.502968E-3
1.829500E-7	3.511533E-3
1.830000E-7	3.554356E-3
1.830500E-7	3.588615E-3
1.831000E-7	3.717086E-3
1.831500E-7	3.922640E-3
1.832000E-7	4.051111E-3
1.832500E-7	4.128193E-3
1.833000E-7	4.248099E-3
1.833500E-7	4.376570E-3
1.834000E-7	4.393700E-3
1.834500E-7	4.342311E-3
1.835000E-7	4.325182E-3
1.835500E-7	4.290923E-3
1.836000E-7	4.162452E-3
1.836500E-7	3.974028E-3
1.837000E-7	3.785604E-3
1.837500E-7	3.605745E-3
1.838000E-7	3.417321E-3
1.838500E-7	3.237461E-3
1.839000E-7	3.117555E-3
1.839500E-7	3.049037E-3
1.840000E-7	3.031908E-3
1.840500E-7	3.074731E-3
1.841000E-7	3.254591E-3
1.841500E-7	3.460144E-3
1.842000E-7	3.605745E-3
1.842500E-7	3.734216E-3
1.843000E-7	3.974028E-3
1.843500E-7	4.188146E-3
1.844000E-7	4.265229E-3
1.844500E-7	4.290923E-3
1.845000E-7	4.325182E-3
1.845500E-7	4.239535E-3
1.846000E-7	4.033981E-3
1.846500E-7	3.836992E-3
1.847000E-7	3.674262E-3
1.847500E-7	3.511533E-3
1.848000E-7	3.374497E-3
1.848500E-7	3.305979E-3
1.849000E-7	3.288850E-3
1.849500E-7	3.340238E-3
1.850000E-7	3.408756E-3
1.850500E-7	3.494403E-3
1.851000E-7	3.640004E-3
1.851500E-7	3.794169E-3
1.852000E-7	3.871251E-3
1.852500E-7	3.939769E-3
1.853000E-7	4.033981E-3
1.853500E-7	4.042546E-3
1.854000E-7	3.931204E-3
1.854500E-7	3.794169E-3
1.855000E-7	3.657133E-3
1.855500E-7	3.511533E-3
1.856000E-7	3.323109E-3
1.856500E-7	3.126120E-3
1.857000E-7	2.937696E-3
1.857500E-7	2.774966E-3
1.858000E-7	2.603671E-3
1.858500E-7	2.458071E-3
1.859000E-7	2.432377E-3
1.859500E-7	2.492330E-3
1.860000E-7	2.500895E-3
1.860500E-7	2.509459E-3
1.861000E-7	2.680754E-3
1.861500E-7	2.929131E-3
1.862000E-7	3.074731E-3
1.862500E-7	3.203202E-3
1.863000E-7	3.425885E-3
1.863500E-7	3.640004E-3
1.864000E-7	3.734216E-3
1.864500E-7	3.785604E-3
1.865000E-7	3.888381E-3
1.865500E-7	3.974028E-3
1.866000E-7	3.956899E-3
1.866500E-7	3.871251E-3
1.867000E-7	3.794169E-3
1.867500E-7	3.699957E-3
1.868000E-7	3.545792E-3
1.868500E-7	3.391626E-3
1.869000E-7	3.340238E-3
1.869500E-7	3.288850E-3
1.870000E-7	3.134685E-3
1.870500E-7	2.971955E-3
1.871000E-7	2.937696E-3
1.871500E-7	2.886307E-3
1.872000E-7	2.800660E-3
1.872500E-7	2.809225E-3
1.873000E-7	2.903437E-3
1.873500E-7	2.971955E-3
1.874000E-7	3.023343E-3
1.874500E-7	3.091861E-3
1.875000E-7	3.134685E-3
1.875500E-7	3.126120E-3
1.876000E-7	3.091861E-3
1.876500E-7	3.049037E-3
1.877000E-7	2.989084E-3
1.877500E-7	2.971955E-3
1.878000E-7	2.980519E-3
1.878500E-7	2.980519E-3
1.879000E-7	3.014778E-3
1.879500E-7	3.014778E-3
1.880000E-7	2.971955E-3
1.880500E-7	2.946260E-3
1.881000E-7	2.971955E-3
1.881500E-7	2.980519E-3
1.882000E-7	2.980519E-3
1.882500E-7	3.006214E-3
1.883000E-7	3.057602E-3
1.883500E-7	3.126120E-3
1.884000E-7	3.186073E-3
1.884500E-7	3.228897E-3
1.885000E-7	3.271720E-3
1.885500E-7	3.348803E-3
1.886000E-7	3.443015E-3
1.886500E-7	3.494403E-3
1.887000E-7	3.528662E-3
1.887500E-7	3.528662E-3
1.888000E-7	3.477274E-3
1.888500E-7	3.425885E-3
1.889000E-7	3.365932E-3
1.889500E-7	3.280285E-3
1.890000E-7	3.194638E-3
1.890500E-7	3.186073E-3
1.891000E-7	3.203202E-3
1.891500E-7	3.186073E-3
1.892000E-7	3.194638E-3
1.892500E-7	3.228897E-3
1.893000E-7	3.263155E-3
1.893500E-7	3.323109E-3
1.894000E-7	3.348803E-3
1.894500E-7	3.305979E-3
1.895000E-7	3.237461E-3
1.895500E-7	3.194638E-3
1.896000E-7	3.066167E-3
1.896500E-7	2.912002E-3
1.897000E-7	2.826354E-3
1.897500E-7	2.749272E-3
1.898000E-7	2.620801E-3
1.898500E-7	2.569412E-3
1.899000E-7	2.603671E-3
1.899500E-7	2.663624E-3
1.900000E-7	2.740707E-3
1.900500E-7	2.843484E-3
1.901000E-7	2.903437E-3
1.901500E-7	2.963390E-3
1.902000E-7	3.040472E-3
1.902500E-7	3.074731E-3
1.903000E-7	3.083296E-3
1.903500E-7	3.108990E-3
1.904000E-7	3.083296E-3
1.904500E-7	3.023343E-3
1.905000E-7	3.057602E-3
1.905500E-7	3.151814E-3
1.906000E-7	3.143249E-3
1.906500E-7	3.108990E-3
1.907000E-7	3.168943E-3
1.907500E-7	3.203202E-3
1.908000E-7	3.151814E-3
1.908500E-7	3.108990E-3
1.909000E-7	3.091861E-3
1.909500E-7	3.057602E-3
1.910000E-7	3.031908E-3
1.910500E-7	2.997649E-3
1.911000E-7	2.954825E-3
1.911500E-7	3.006214E-3
1.912000E-7	3.108990E-3
1.912500E-7	3.151814E-3
1.913000E-7	3.203202E-3
1.913500E-7	3.357367E-3
1.914000E-7	3.494403E-3
1.914500E-7	3.562921E-3
1.915000E-7	3.674262E-3
1.915500E-7	3.802733E-3
1.916000E-7	3.862687E-3
1.916500E-7	3.879816E-3
1.917000E-7	3.871251E-3
1.917500E-7	3.751345E-3
1.918000E-7	3.597180E-3
1.918500E-7	3.494403E-3
1.919000E-7	3.374497E-3
1.919500E-7	3.168943E-3
1.920000E-7	2.954825E-3
1.920500E-7	2.757836E-3
1.921000E-7	2.552283E-3
1.921500E-7	2.389553E-3
1.922000E-7	2.303906E-3
1.922500E-7	2.243953E-3
1.923000E-7	2.303906E-3
1.923500E-7	2.458071E-3
1.924000E-7	2.620801E-3
1.924500E-7	2.766401E-3
1.925000E-7	3.006214E-3
1.925500E-7	3.280285E-3
1.926000E-7	3.502968E-3
1.926500E-7	3.682827E-3
1.927000E-7	3.802733E-3
1.927500E-7	3.811298E-3
1.928000E-7	3.699957E-3
1.928500E-7	3.554356E-3
1.929000E-7	3.348803E-3
1.929500E-7	3.151814E-3
1.930000E-7	2.954825E-3
1.930500E-7	2.749272E-3
1.931000E-7	2.620801E-3
1.931500E-7	2.612236E-3
1.932000E-7	2.620801E-3
1.932500E-7	2.689319E-3
1.933000E-7	2.937696E-3
1.933500E-7	3.194638E-3
1.934000E-7	3.297414E-3
1.934500E-7	3.400191E-3
1.935000E-7	3.554356E-3
1.935500E-7	3.614309E-3
1.936000E-7	3.545792E-3
1.936500E-7	3.451580E-3
1.937000E-7	3.383062E-3
1.937500E-7	3.314544E-3
1.938000E-7	3.228897E-3
1.938500E-7	3.160379E-3
1.939000E-7	3.151814E-3
1.939500E-7	3.168943E-3
1.940000E-7	3.160379E-3
1.940500E-7	3.151814E-3
1.941000E-7	3.203202E-3
1.941500E-7	3.246026E-3
1.942000E-7	3.203202E-3
1.942500E-7	3.177508E-3
1.943000E-7	3.151814E-3
1.943500E-7	3.049037E-3
1.944000E-7	2.954825E-3
1.944500E-7	2.920566E-3
1.945000E-7	2.860613E-3
1.945500E-7	2.723577E-3
1.946000E-7	2.577977E-3
1.946500E-7	2.475200E-3
1.947000E-7	2.398118E-3
1.947500E-7	2.295341E-3
1.948000E-7	2.218258E-3
1.948500E-7	2.201129E-3
1.949000E-7	2.243953E-3
1.949500E-7	2.269647E-3
1.950000E-7	2.286776E-3
1.950500E-7	2.346729E-3
1.951000E-7	2.415247E-3
1.951500E-7	2.449506E-3
1.952000E-7	2.458071E-3
1.952500E-7	2.458071E-3
1.953000E-7	2.415247E-3
1.953500E-7	2.355294E-3
1.954000E-7	2.312470E-3
1.954500E-7	2.286776E-3
1.955000E-7	2.243953E-3
1.955500E-7	2.235388E-3
1.956000E-7	2.278212E-3
1.956500E-7	2.338165E-3
1.957000E-7	2.415247E-3
1.957500E-7	2.535153E-3
1.958000E-7	2.646495E-3
1.958500E-7	2.680754E-3
1.959000E-7	2.740707E-3
1.959500E-7	2.809225E-3
1.960000E-7	2.817790E-3
1.960500E-7	2.766401E-3
1.961000E-7	2.706448E-3
1.961500E-7	2.680754E-3
1.962000E-7	2.646495E-3
1.962500E-7	2.655060E-3
1.963000E-7	2.663624E-3
1.963500E-7	2.689319E-3
1.964000E-7	2.749272E-3
1.964500E-7	2.792095E-3
1.965000E-7	2.800660E-3
1.965500E-7	2.860613E-3
1.966000E-7	2.894872E-3
1.966500E-7	2.834919E-3
1.967000E-7	2.774966E-3
1.967500E-7	2.783531E-3
1.968000E-7	2.749272E-3
1.968500E-7	2.706448E-3
1.969000E-7	2.757836E-3
1.969500E-7	2.800660E-3
1.970000E-7	2.740707E-3
1.970500E-7	2.697883E-3
1.971000E-7	2.749272E-3
1.971500E-7	2.792095E-3
1.972000E-7	2.749272E-3
1.972500E-7	2.637930E-3
1.973000E-7	2.526589E-3
1.973500E-7	2.406682E-3
1.974000E-7	2.269647E-3
1.974500E-7	2.132611E-3
1.975000E-7	2.089787E-3
1.975500E-7	2.106917E-3
1.976000E-7	2.046964E-3
1.976500E-7	1.995575E-3
1.977000E-7	2.072658E-3
1.977500E-7	2.158305E-3
1.978000E-7	2.166870E-3
1.978500E-7	2.226823E-3
1.979000E-7	2.380988E-3
1.979500E-7	2.466636E-3
1.980000E-7	2.458071E-3
1.980500E-7	2.500895E-3
1.981000E-7	2.620801E-3
1.981500E-7	2.732142E-3
1.982000E-7	2.792095E-3
1.982500E-7	2.843484E-3
1.983000E-7	2.929131E-3
1.983500E-7	3.006214E-3
1.984000E-7	3.074731E-3
1.984500E-7	3.091861E-3
1.985000E-7	3.083296E-3
1.985500E-7	3.049037E-3
1.986000E-7	2.946260E-3
1.986500E-7	2.834919E-3
1.987000E-7	2.757836E-3
1.987500E-7	2.655060E-3
1.988000E-7	2.483765E-3
1.988500E-7	2.363859E-3
1.989000E-7	2.372424E-3
1.989500E-7	2.380988E-3
1.990000E-7	2.355294E-3
1.990500E-7	2.372424E-3
1.991000E-7	2.466636E-3
1.991500E-7	2.577977E-3
1.992000E-7	2.672189E-3
1.992500E-7	2.740707E-3
1.993000E-7	2.783531E-3
1.993500E-7	2.860613E-3
1.994000E-7	2.903437E-3
1.994500E-7	2.877743E-3
1.995000E-7	2.886307E-3
1.995500E-7	2.946260E-3
1.996000E-7	2.954825E-3
1.996500E-7	2.903437E-3
1.997000E-7	2.929131E-3
1.997500E-7	3.066167E-3
1.998000E-7	3.168943E-3
1.998500E-7	3.211767E-3
1.999000E-7	3.263155E-3
1.999500E-7	3.357367E-3
2.000000E-7	3.400191E-3
