Study Name	Tungsten_Calibration
Sample Name	2024-10-02
Run Name	baseline
Operator	Elena
Date	10/2/2024
Time	14:02
Sign	NEG
Grating Spacing	03.40um
Channel	3
Number Traces	2000
Files in Batch	6
Batch Number	5
dt	100.000001E-12
time stamp (ms)	2:02:54 PM
	
Time	Amplitude
0.000000E+0	2.196222E-3
1.000000E-10	2.055747E-3
2.000000E-10	2.252755E-3
3.000000E-10	1.653166E-3
4.000000E-10	1.094692E-3
5.000000E-10	9.285208E-4
6.000000E-10	9.131028E-4
7.000000E-10	5.961775E-4
8.000000E-10	4.985302E-4
9.000000E-10	8.737013E-4
1.000000E-9	1.863879E-3
1.100000E-9	2.209927E-3
1.200000E-9	2.024911E-3
1.300000E-9	1.279708E-3
1.400000E-9	1.077561E-3
1.500000E-9	1.749101E-3
1.600000E-9	2.331558E-3
1.700000E-9	2.113993E-3
1.800000E-9	9.045373E-4
1.900000E-9	9.970452E-4
2.000000E-9	1.620617E-3
2.100000E-9	1.164930E-3
2.200000E-9	1.079274E-3
2.300000E-9	6.458577E-4
2.400000E-9	1.284984E-4
2.500000E-9	8.856931E-4
2.600000E-9	1.305405E-3
2.700000E-9	1.341380E-3
2.800000E-9	2.458328E-3
2.900000E-9	2.377812E-3
3.000000E-9	2.098575E-3
3.100000E-9	1.913559E-3
3.200000E-9	1.576076E-3
3.300000E-9	5.978906E-4
3.400000E-9	7.880458E-4
3.500000E-9	8.480046E-4
3.600000E-9	4.745467E-4
3.700000E-9	-2.980660E-4
3.800000E-9	-2.672300E-4
3.900000E-9	3.237930E-4
4.000000E-9	7.794802E-4
4.100000E-9	8.223080E-4
4.200000E-9	1.173496E-3
4.300000E-9	2.143116E-3
4.400000E-9	1.946108E-3
4.500000E-9	2.112280E-3
4.600000E-9	1.672011E-3
4.700000E-9	9.559306E-4
4.800000E-9	9.764879E-4
4.900000E-9	5.670546E-4
5.000000E-9	3.923174E-4
5.100000E-9	6.355790E-4
5.200000E-9	2.843914E-4
5.300000E-9	7.349394E-4
5.400000E-9	1.164930E-3
5.500000E-9	1.639461E-3
5.600000E-9	9.747748E-4
5.700000E-9	2.364107E-3
5.800000E-9	2.400082E-3
5.900000E-9	2.137976E-3
6.000000E-9	1.733683E-3
6.100000E-9	6.184479E-4
6.200000E-9	6.544232E-4
6.300000E-9	1.257438E-3
6.400000E-9	1.713125E-3
6.500000E-9	8.188818E-4
6.600000E-9	1.661869E-4
6.700000E-9	1.010750E-3
6.800000E-9	1.517831E-3
6.900000E-9	1.415044E-3
7.000000E-9	1.192340E-3
7.100000E-9	2.072878E-3
7.200000E-9	2.566254E-3
7.300000E-9	2.526852E-3
7.400000E-9	1.788502E-3
7.500000E-9	1.166643E-3
7.600000E-9	8.737013E-4
7.700000E-9	8.325867E-4
7.800000E-9	1.255725E-3
7.900000E-9	1.577790E-3
8.000000E-9	1.351659E-3
8.100000E-9	2.107277E-4
8.200000E-9	1.250585E-3
8.300000E-9	1.649740E-3
8.400000E-9	1.605199E-3
8.500000E-9	1.646314E-3
8.600000E-9	1.973518E-3
8.700000E-9	2.254468E-3
8.800000E-9	2.369246E-3
8.900000E-9	1.625757E-3
9.000000E-9	6.441446E-4
9.100000E-9	8.891193E-4
9.200000E-9	1.769658E-3
9.300000E-9	6.989641E-4
9.400000E-9	8.805537E-4
9.500000E-9	8.257342E-4
9.600000E-9	1.346520E-3
9.700000E-9	1.874158E-3
9.800000E-9	8.754144E-4
9.900000E-9	1.922125E-3
1.000000E-8	1.451019E-3
1.010000E-8	2.297296E-3
1.020000E-8	2.047182E-3
1.030000E-8	1.961526E-3
1.040000E-8	1.111824E-3
1.050000E-8	9.507912E-4
1.060000E-8	1.334528E-3
1.070000E-8	1.046725E-3
1.080000E-8	7.897589E-4
1.090000E-8	9.884797E-4
1.100000E-8	4.985302E-4
1.110000E-8	8.120293E-4
1.120000E-8	1.264290E-3
1.130000E-8	1.932403E-3
1.140000E-8	1.824477E-3
1.150000E-8	1.982083E-3
1.160000E-8	2.326419E-3
1.170000E-8	2.007780E-3
1.180000E-8	1.738822E-3
1.190000E-8	7.606360E-4
1.200000E-8	1.329389E-3
1.210000E-8	1.260864E-3
1.220000E-8	1.223176E-3
1.230000E-8	5.447842E-4
1.240000E-8	5.876119E-4
1.250000E-8	5.070957E-4
1.260000E-8	1.185487E-3
1.270000E-8	1.305405E-3
1.280000E-8	1.392774E-3
1.290000E-8	1.301979E-3
1.300000E-8	1.348233E-3
1.310000E-8	2.299009E-3
1.320000E-8	1.718265E-3
1.330000E-8	-9.420586E-5
1.340000E-8	6.270134E-4
1.350000E-8	1.557232E-3
1.360000E-8	1.284848E-3
1.370000E-8	1.187200E-3
1.380000E-8	4.488500E-4
1.390000E-8	6.407183E-4
1.400000E-8	1.574363E-3
1.410000E-8	1.666871E-3
1.420000E-8	1.308831E-3
1.430000E-8	1.514404E-3
1.440000E-8	1.952961E-3
1.450000E-8	2.122558E-3
1.460000E-8	1.987223E-3
1.470000E-8	1.543527E-3
1.480000E-8	5.893250E-4
1.490000E-8	9.370864E-4
1.500000E-8	1.218036E-3
1.510000E-8	6.972510E-4
1.520000E-8	3.374979E-4
1.530000E-8	-2.603775E-4
1.540000E-8	3.614814E-4
1.550000E-8	1.411618E-3
1.560000E-8	2.078018E-3
1.570000E-8	1.610339E-3
1.580000E-8	2.458328E-3
1.590000E-8	2.427492E-3
1.600000E-8	2.405222E-3
1.610000E-8	1.827904E-3
1.620000E-8	1.084414E-3
1.630000E-8	9.953321E-4
1.640000E-8	1.098119E-3
1.650000E-8	5.687677E-4
1.660000E-8	2.895308E-4
1.670000E-8	2.073015E-4
1.680000E-8	1.063857E-3
1.690000E-8	1.370503E-3
1.700000E-8	9.576437E-4
1.710000E-8	1.248872E-3
1.720000E-8	1.528109E-3
1.730000E-8	1.629183E-3
1.740000E-8	1.800494E-3
1.750000E-8	1.630896E-3
1.760000E-8	9.644961E-4
1.770000E-8	1.242020E-3
1.780000E-8	8.685620E-4
1.790000E-8	1.709699E-3
1.800000E-8	9.370864E-4
1.810000E-8	7.400787E-4
1.820000E-8	5.567759E-4
1.830000E-8	1.045012E-3
1.840000E-8	1.495560E-3
1.850000E-8	1.101545E-3
1.860000E-8	1.122102E-3
1.870000E-8	1.593207E-3
1.880000E-8	1.521257E-3
1.890000E-8	2.665614E-3
1.900000E-8	2.768401E-3
1.910000E-8	1.488708E-3
1.920000E-8	2.381375E-4
1.930000E-8	5.944644E-4
1.940000E-8	1.007324E-3
1.950000E-8	2.449899E-4
1.960000E-8	-6.286962E-4
1.970000E-8	-1.010583E-4
1.980000E-8	1.802207E-3
1.990000E-8	2.108854E-3
2.000000E-8	1.774797E-3
2.010000E-8	1.918698E-3
2.020000E-8	2.100288E-3
2.030000E-8	2.300722E-3
2.040000E-8	1.980370E-3
2.050000E-8	1.288274E-3
2.060000E-8	3.700469E-4
2.070000E-8	1.418470E-3
2.080000E-8	6.218741E-4
2.090000E-8	4.762598E-4
2.100000E-8	3.392110E-4
2.110000E-8	-2.689431E-4
2.120000E-8	1.067283E-3
2.130000E-8	1.296839E-3
2.140000E-8	1.000471E-3
2.150000E-8	1.709699E-3
2.160000E-8	1.673724E-3
2.170000E-8	2.213353E-3
2.180000E-8	2.208214E-3
2.190000E-8	1.930690E-3
2.200000E-8	7.109558E-4
2.210000E-8	7.743409E-4
2.220000E-8	7.435049E-4
2.230000E-8	1.084414E-3
2.240000E-8	5.156613E-4
2.250000E-8	3.357847E-4
2.260000E-8	3.203668E-4
2.270000E-8	1.303692E-3
2.280000E-8	1.127242E-3
2.290000E-8	1.617191E-3
2.300000E-8	1.747387E-3
2.310000E-8	1.699420E-3
2.320000E-8	1.603486E-3
2.330000E-8	1.966665E-3
2.340000E-8	1.469864E-3
2.350000E-8	4.933909E-4
2.360000E-8	1.168356E-3
2.370000E-8	1.303692E-3
2.380000E-8	5.704808E-4
2.390000E-8	3.974567E-4
2.400000E-8	2.655472E-4
2.410000E-8	6.458577E-4
2.420000E-8	1.122102E-3
2.430000E-8	1.990649E-3
2.440000E-8	2.326419E-3
2.450000E-8	2.595377E-3
2.460000E-8	2.735852E-3
2.470000E-8	2.530279E-3
2.480000E-8	2.090009E-3
2.490000E-8	8.719882E-4
2.500000E-8	1.240307E-3
2.510000E-8	5.653415E-4
2.520000E-8	5.533497E-4
2.530000E-8	-4.334016E-4
2.540000E-8	1.935966E-4
2.550000E-8	6.338659E-4
2.560000E-8	1.877584E-3
2.570000E-8	2.050608E-3
2.580000E-8	1.089553E-3
2.590000E-8	2.107140E-3
2.600000E-8	2.083157E-3
2.610000E-8	1.875871E-3
2.620000E-8	1.665158E-3
2.630000E-8	5.961775E-4
2.640000E-8	8.360129E-4
2.650000E-8	9.816272E-4
2.660000E-8	1.024455E-3
2.670000E-8	5.567759E-4
2.680000E-8	4.284294E-5
2.690000E-8	4.060223E-4
2.700000E-8	1.524683E-3
2.710000E-8	1.408192E-3
2.720000E-8	1.127242E-3
2.730000E-8	2.394943E-3
2.740000E-8	2.754696E-3
2.750000E-8	2.860909E-3
2.760000E-8	2.185944E-3
2.770000E-8	1.245446E-3
2.780000E-8	1.277995E-3
2.790000E-8	1.649740E-3
2.800000E-8	5.978906E-4
2.810000E-8	3.820387E-4
2.820000E-8	-3.938634E-5
2.830000E-8	3.906043E-4
2.840000E-8	1.170069E-3
2.850000E-8	2.040329E-3
2.860000E-8	1.589781E-3
2.870000E-8	1.757666E-3
2.880000E-8	2.168812E-3
2.890000E-8	2.134550E-3
2.900000E-8	2.651909E-3
2.910000E-8	1.509265E-3
2.920000E-8	9.593568E-4
2.930000E-8	7.126690E-4
2.940000E-8	1.440741E-3
2.950000E-8	1.534962E-3
2.960000E-8	1.185487E-3
2.970000E-8	5.310793E-4
2.980000E-8	9.576437E-4
2.990000E-8	1.303692E-3
3.000000E-8	1.755953E-3
3.010000E-8	1.103258E-3
3.020000E-8	1.755953E-3
3.030000E-8	2.338410E-3
3.040000E-8	2.496016E-3
3.050000E-8	2.006067E-3
3.060000E-8	1.625757E-3
3.070000E-8	1.046725E-3
3.080000E-8	1.142660E-3
3.090000E-8	9.131028E-4
3.100000E-8	6.407183E-4
3.110000E-8	5.721939E-4
3.120000E-8	7.349394E-4
3.130000E-8	9.936190E-4
3.140000E-8	1.259151E-3
3.150000E-8	1.147799E-3
3.160000E-8	1.445880E-3
3.170000E-8	2.747844E-3
3.180000E-8	2.189370E-3
3.190000E-8	1.935829E-3
3.200000E-8	9.182422E-4
3.210000E-8	8.377260E-4
3.220000E-8	1.218036E-3
3.230000E-8	1.329389E-3
3.240000E-8	1.301979E-3
3.250000E-8	1.284984E-4
3.260000E-8	5.739070E-4
3.270000E-8	8.240211E-4
3.280000E-8	1.264290E-3
3.290000E-8	1.159791E-3
3.300000E-8	1.437314E-3
3.310000E-8	2.066026E-3
3.320000E-8	2.566254E-3
3.330000E-8	2.353828E-3
3.340000E-8	2.035190E-3
3.350000E-8	1.289987E-3
3.360000E-8	8.103162E-4
3.370000E-8	1.567511E-3
3.380000E-8	9.970452E-4
3.390000E-8	3.871780E-4
3.400000E-8	-7.364854E-5
3.410000E-8	1.728297E-6
3.420000E-8	1.147799E-3
3.430000E-8	1.399626E-3
3.440000E-8	1.140946E-3
3.450000E-8	1.281421E-3
3.460000E-8	2.050608E-3
3.470000E-8	2.000928E-3
3.480000E-8	1.875871E-3
3.490000E-8	8.908324E-4
3.500000E-8	9.782010E-4
3.510000E-8	1.735396E-3
3.520000E-8	1.247159E-3
3.530000E-8	8.976848E-4
3.540000E-8	1.267853E-4
3.550000E-8	6.424314E-4
3.560000E-8	1.034734E-3
3.570000E-8	1.266003E-3
3.580000E-8	1.615478E-3
3.590000E-8	1.144373E-3
3.600000E-8	1.846748E-3
3.610000E-8	2.633065E-3
3.620000E-8	2.937999E-3
3.630000E-8	1.577790E-3
3.640000E-8	9.096766E-4
3.650000E-8	1.355085E-3
3.660000E-8	1.581216E-3
3.670000E-8	8.548571E-4
3.680000E-8	3.957436E-4
3.690000E-8	2.946701E-4
3.700000E-8	9.045373E-4
3.710000E-8	1.814199E-3
3.720000E-8	1.983797E-3
3.730000E-8	1.661732E-3
3.740000E-8	1.860453E-3
3.750000E-8	2.263034E-3
3.760000E-8	2.299009E-3
3.770000E-8	2.305861E-3
3.780000E-8	1.442454E-3
3.790000E-8	9.901928E-4
3.800000E-8	8.497178E-4
3.810000E-8	1.084414E-3
3.820000E-8	6.218741E-4
3.830000E-8	5.019564E-4
3.840000E-8	3.220799E-4
3.850000E-8	1.185487E-3
3.860000E-8	1.968379E-3
3.870000E-8	1.207758E-3
3.880000E-8	1.216323E-3
3.890000E-8	1.475003E-3
3.900000E-8	1.911846E-3
3.910000E-8	1.713125E-3
3.920000E-8	7.092427E-4
3.930000E-8	1.134094E-3
3.940000E-8	9.473650E-4
3.950000E-8	1.613765E-3
3.960000E-8	1.086127E-3
3.970000E-8	1.365364E-3
3.980000E-8	8.580737E-6
3.990000E-8	9.285208E-4
4.000000E-8	6.527101E-4
4.010000E-8	1.742248E-3
4.020000E-8	1.188914E-3
4.030000E-8	1.750814E-3
4.040000E-8	2.607369E-3
4.050000E-8	2.047182E-3
4.060000E-8	1.380782E-3
4.070000E-8	1.098119E-3
4.080000E-8	9.250946E-4
4.090000E-8	1.363651E-3
4.100000E-8	1.507552E-3
4.110000E-8	1.123815E-3
4.120000E-8	5.756201E-4
4.130000E-8	8.874062E-4
4.140000E-8	2.173952E-3
4.150000E-8	1.817625E-3
4.160000E-8	1.601773E-3
4.170000E-8	1.980370E-3
4.180000E-8	1.947821E-3
4.190000E-8	2.168812E-3
4.200000E-8	2.348689E-3
4.210000E-8	1.240307E-3
4.220000E-8	7.503574E-4
4.230000E-8	1.046725E-3
4.240000E-8	1.629183E-3
4.250000E-8	7.846196E-4
4.260000E-8	4.454238E-4
4.270000E-8	-4.966500E-5
4.280000E-8	7.143821E-4
4.290000E-8	1.505839E-3
4.300000E-8	1.773084E-3
4.310000E-8	9.696355E-4
4.320000E-8	1.940969E-3
4.330000E-8	1.728543E-3
4.340000E-8	2.466894E-3
4.350000E-8	1.723404E-3
4.360000E-8	6.441446E-4
4.370000E-8	6.150217E-4
4.380000E-8	1.247159E-3
4.390000E-8	7.041034E-4
4.400000E-8	7.195214E-4
4.410000E-8	-2.346809E-4
4.420000E-8	9.233815E-4
4.430000E-8	1.721691E-3
4.440000E-8	1.783363E-3
4.450000E-8	1.269430E-3
4.460000E-8	1.209471E-3
4.470000E-8	1.999215E-3
4.480000E-8	2.460041E-3
4.490000E-8	2.139690E-3
4.500000E-8	9.011111E-4
4.510000E-8	6.253003E-4
4.520000E-8	1.384208E-3
4.530000E-8	5.070957E-4
4.540000E-8	2.913806E-5
4.550000E-8	-1.627303E-4
4.560000E-8	-7.364854E-5
4.570000E-8	1.007324E-3
4.580000E-8	1.867305E-3
4.590000E-8	1.406479E-3
4.600000E-8	1.946108E-3
4.610000E-8	2.088296E-3
4.620000E-8	2.432631E-3
4.630000E-8	2.377812E-3
4.640000E-8	1.697707E-3
4.650000E-8	4.077354E-4
4.660000E-8	3.512027E-4
4.670000E-8	6.886854E-4
4.680000E-8	7.674885E-4
4.690000E-8	4.488500E-4
4.700000E-8	-3.665904E-4
4.710000E-8	7.948982E-4
4.720000E-8	1.336241E-3
4.730000E-8	1.187200E-3
4.740000E-8	8.274473E-4
4.750000E-8	2.403509E-3
4.760000E-8	2.442910E-3
4.770000E-8	1.735396E-3
4.780000E-8	1.483568E-3
4.790000E-8	9.319470E-4
4.800000E-8	1.269430E-3
4.810000E-8	8.891193E-4
4.820000E-8	6.818330E-4
4.830000E-8	4.711204E-4
4.840000E-8	7.710514E-5
4.850000E-8	5.927512E-4
4.860000E-8	1.737109E-3
4.870000E-8	1.766232E-3
4.880000E-8	1.901567E-3
4.890000E-8	1.601773E-3
4.900000E-8	2.621074E-3
4.910000E-8	2.610795E-3
4.920000E-8	2.163673E-3
4.930000E-8	2.016346E-3
4.940000E-8	1.137520E-3
4.950000E-8	1.773084E-3
4.960000E-8	1.673724E-3
4.970000E-8	6.595625E-4
4.980000E-8	3.563421E-4
4.990000E-8	6.867627E-6
5.000000E-8	1.048439E-3
5.010000E-8	1.389347E-3
5.020000E-8	7.692016E-4
5.030000E-8	9.610699E-4
5.040000E-8	1.779936E-3
5.050000E-8	1.903280E-3
5.060000E-8	1.514404E-3
5.070000E-8	9.319470E-4
5.080000E-8	1.901704E-4
5.090000E-8	4.728335E-4
5.100000E-8	1.230028E-3
5.110000E-8	1.084414E-3
5.120000E-8	1.216460E-4
5.130000E-8	3.786125E-4
5.140000E-8	7.109558E-4
5.150000E-8	2.024911E-3
5.160000E-8	1.442454E-3
5.170000E-8	9.730617E-4
5.180000E-8	1.461298E-3
5.190000E-8	1.935829E-3
5.200000E-8	1.982083E-3
5.210000E-8	1.755953E-3
5.220000E-8	1.361938E-3
5.230000E-8	9.028242E-4
5.240000E-8	1.413331E-3
5.250000E-8	1.272856E-3
5.260000E-8	5.602022E-4
5.270000E-8	-5.480433E-5
5.280000E-8	4.539893E-4
5.290000E-8	1.063857E-3
5.300000E-8	1.209471E-3
5.310000E-8	6.989641E-4
5.320000E-8	6.852592E-4
5.330000E-8	1.786789E-3
5.340000E-8	2.670754E-3
5.350000E-8	1.665158E-3
5.360000E-8	1.158078E-3
5.370000E-8	1.305405E-3
5.380000E-8	1.303692E-3
5.390000E-8	7.623491E-4
5.400000E-8	4.676942E-4
5.410000E-8	7.400787E-4
5.420000E-8	1.490558E-4
5.430000E-8	-1.575909E-4
5.440000E-8	5.430711E-4
5.450000E-8	1.373929E-3
5.460000E-8	1.517831E-3
5.470000E-8	1.636035E-3
5.480000E-8	2.239050E-3
5.490000E-8	1.699420E-3
5.500000E-8	1.641175E-3
5.510000E-8	8.805537E-4
5.520000E-8	5.739070E-4
5.530000E-8	1.396200E-3
5.540000E-8	7.263738E-4
5.550000E-8	4.813991E-4
5.560000E-8	7.881825E-5
5.570000E-8	1.010750E-3
5.580000E-8	1.252299E-3
5.590000E-8	1.437314E-3
5.600000E-8	1.483568E-3
5.610000E-8	1.730256E-3
5.620000E-8	2.543984E-3
5.630000E-8	2.254468E-3
5.640000E-8	2.376099E-3
5.650000E-8	1.195766E-3
5.660000E-8	1.221463E-3
5.670000E-8	1.788502E-3
5.680000E-8	1.231741E-3
5.690000E-8	5.961775E-4
5.700000E-8	1.079411E-4
5.710000E-8	5.139482E-4
5.720000E-8	9.165290E-4
5.730000E-8	1.791928E-3
5.740000E-8	1.740535E-3
5.750000E-8	2.113993E-3
5.760000E-8	2.148255E-3
5.770000E-8	1.934116E-3
5.780000E-8	2.237337E-3
5.790000E-8	2.004354E-3
5.800000E-8	1.260864E-3
5.810000E-8	7.640623E-4
5.820000E-8	9.250946E-4
5.830000E-8	8.805537E-4
5.840000E-8	8.548571E-4
5.850000E-8	3.529158E-4
5.860000E-8	1.713262E-4
5.870000E-8	1.060430E-3
5.880000E-8	1.221463E-3
5.890000E-8	8.548571E-4
5.900000E-8	1.769658E-3
5.910000E-8	1.867305E-3
5.920000E-8	2.617647E-3
5.930000E-8	2.590238E-3
5.940000E-8	1.528109E-3
5.950000E-8	8.274473E-4
5.960000E-8	1.214610E-3
5.970000E-8	9.387995E-4
5.980000E-8	2.295719E-4
5.990000E-8	-1.284681E-4
6.000000E-8	3.460634E-4
6.010000E-8	1.142660E-3
6.020000E-8	2.091723E-3
6.030000E-8	1.344807E-3
6.040000E-8	1.284848E-3
6.050000E-8	1.910133E-3
6.060000E-8	2.477172E-3
6.070000E-8	1.749101E-3
6.080000E-8	1.548667E-3
6.090000E-8	5.105220E-4
6.100000E-8	1.053578E-3
6.110000E-8	1.725117E-3
6.120000E-8	8.839800E-4
6.130000E-8	8.580737E-6
6.140000E-8	-3.820083E-4
6.150000E-8	2.809652E-4
6.160000E-8	7.966113E-4
6.170000E-8	4.197271E-4
6.180000E-8	1.033021E-3
6.190000E-8	1.976944E-3
6.200000E-8	1.886149E-3
6.210000E-8	1.872444E-3
6.220000E-8	1.610339E-3
6.230000E-8	4.094485E-4
6.240000E-8	1.094692E-3
6.250000E-8	1.120389E-3
6.260000E-8	1.252299E-3
6.270000E-8	5.379317E-4
6.280000E-8	2.484161E-4
6.290000E-8	4.899646E-4
6.300000E-8	1.051865E-3
6.310000E-8	1.534962E-3
6.320000E-8	1.139233E-3
6.330000E-8	1.874158E-3
6.340000E-8	2.537131E-3
6.350000E-8	2.305861E-3
6.360000E-8	1.891289E-3
6.370000E-8	1.457872E-3
6.380000E-8	8.051769E-4
6.390000E-8	1.195766E-3
6.400000E-8	1.216323E-3
6.410000E-8	5.550628E-4
6.420000E-8	1.029385E-5
6.430000E-8	-4.196968E-4
6.440000E-8	8.805537E-4
6.450000E-8	1.106684E-3
6.460000E-8	1.411618E-3
6.470000E-8	1.305405E-3
6.480000E-8	1.976944E-3
6.490000E-8	2.069452E-3
6.500000E-8	2.766688E-3
6.510000E-8	2.173952E-3
6.520000E-8	1.053578E-3
6.530000E-8	6.235872E-4
6.540000E-8	1.257438E-3
6.550000E-8	1.183774E-3
6.560000E-8	3.923174E-4
6.570000E-8	4.796860E-4
6.580000E-8	1.331102E-3
6.590000E-8	1.910133E-3
6.600000E-8	2.113993E-3
6.610000E-8	1.259151E-3
6.620000E-8	1.737109E-3
6.630000E-8	2.261320E-3
6.640000E-8	2.115706E-3
6.650000E-8	2.199648E-3
6.660000E-8	1.140946E-3
6.670000E-8	1.039873E-3
6.680000E-8	1.086127E-3
6.690000E-8	1.317397E-3
6.700000E-8	3.666207E-4
6.710000E-8	3.871780E-4
6.720000E-8	3.871780E-4
6.730000E-8	9.764879E-4
6.740000E-8	1.769658E-3
6.750000E-8	1.610339E-3
6.760000E-8	1.397913E-3
6.770000E-8	1.370503E-3
6.780000E-8	1.831330E-3
6.790000E-8	2.223632E-3
6.800000E-8	1.589781E-3
6.810000E-8	9.473650E-4
6.820000E-8	9.747748E-4
6.830000E-8	1.183774E-3
6.840000E-8	4.368582E-4
6.850000E-8	4.265796E-4
6.860000E-8	7.539203E-5
6.870000E-8	-2.843611E-4
6.880000E-8	1.096406E-3
6.890000E-8	1.716551E-3
6.900000E-8	6.681281E-4
6.910000E-8	1.593207E-3
6.920000E-8	1.569224E-3
6.930000E-8	1.788502E-3
6.940000E-8	2.292156E-3
6.950000E-8	1.637748E-3
6.960000E-8	8.651357E-4
6.970000E-8	1.475003E-3
6.980000E-8	8.788406E-4
6.990000E-8	7.914720E-4
7.000000E-8	1.559082E-4
7.010000E-8	1.867442E-4
7.020000E-8	5.345055E-4
7.030000E-8	1.433888E-3
7.040000E-8	1.781650E-3
7.050000E-8	1.608625E-3
7.060000E-8	2.042042E-3
7.070000E-8	2.040329E-3
7.080000E-8	2.293869E-3
7.090000E-8	1.531536E-3
7.100000E-8	1.305405E-3
7.110000E-8	1.392774E-3
7.120000E-8	1.622330E-3
7.130000E-8	2.861046E-4
7.140000E-8	8.993979E-4
7.150000E-8	-2.739457E-5
7.160000E-8	7.503574E-4
7.170000E-8	1.552093E-3
7.180000E-8	1.586355E-3
7.190000E-8	6.561363E-4
7.200000E-8	2.144829E-3
7.210000E-8	2.302435E-3
7.220000E-8	2.319566E-3
7.230000E-8	1.512691E-3
7.240000E-8	1.111824E-3
7.250000E-8	1.156364E-3
7.260000E-8	1.509265E-3
7.270000E-8	6.561363E-4
7.280000E-8	1.161504E-3
7.290000E-8	3.563421E-4
7.300000E-8	1.233454E-3
7.310000E-8	1.490421E-3
7.320000E-8	1.416757E-3
7.330000E-8	1.389347E-3
7.340000E-8	1.716551E-3
7.350000E-8	2.213353E-3
7.360000E-8	9.970452E-4
7.370000E-8	1.319110E-3
7.380000E-8	9.045373E-4
7.390000E-8	8.103162E-4
7.400000E-8	1.272856E-3
7.410000E-8	1.689142E-3
7.420000E-8	4.968171E-4
7.430000E-8	5.550628E-4
7.440000E-8	1.576213E-4
7.450000E-8	1.010750E-3
7.460000E-8	1.221463E-3
7.470000E-8	1.428749E-3
7.480000E-8	1.469864E-3
7.490000E-8	2.148255E-3
7.500000E-8	2.508008E-3
7.510000E-8	1.507552E-3
7.520000E-8	3.974567E-4
7.530000E-8	8.308735E-4
7.540000E-8	1.086127E-3
7.550000E-8	1.080988E-3
7.560000E-8	8.771275E-4
7.570000E-8	3.441407E-6
7.580000E-8	6.115955E-4
7.590000E-8	6.852592E-4
7.600000E-8	2.014633E-3
7.610000E-8	1.562372E-3
7.620000E-8	1.593207E-3
7.630000E-8	2.004354E-3
7.640000E-8	2.293869E-3
7.650000E-8	2.412074E-3
7.660000E-8	2.064313E-3
7.670000E-8	1.307118E-3
7.680000E-8	8.959717E-4
7.690000E-8	1.747387E-3
7.700000E-8	1.648027E-3
7.710000E-8	1.115250E-3
7.720000E-8	-2.225524E-5
7.730000E-8	5.826093E-5
7.740000E-8	6.938247E-4
7.750000E-8	1.079274E-3
7.760000E-8	1.514404E-3
7.770000E-8	1.541814E-3
7.780000E-8	1.620617E-3
7.790000E-8	2.011206E-3
7.800000E-8	2.108854E-3
7.810000E-8	1.415044E-3
7.820000E-8	1.123815E-3
7.830000E-8	1.749101E-3
7.840000E-8	1.603486E-3
7.850000E-8	5.876119E-4
7.860000E-8	3.649076E-4
7.870000E-8	2.057251E-5
7.880000E-8	6.115955E-4
7.890000E-8	1.207758E-3
7.900000E-8	1.848461E-3
7.910000E-8	1.120389E-3
7.920000E-8	2.048895E-3
7.930000E-8	2.278451E-3
7.940000E-8	2.280165E-3
7.950000E-8	2.038616E-3
7.960000E-8	5.687677E-4
7.970000E-8	5.944644E-4
7.980000E-8	1.026168E-3
7.990000E-8	8.634226E-4
8.000000E-8	-4.795189E-5
8.010000E-8	1.543318E-5
8.020000E-8	7.109558E-4
8.030000E-8	1.418470E-3
8.040000E-8	1.411618E-3
8.050000E-8	1.833043E-3
8.060000E-8	1.389347E-3
8.070000E-8	2.014633E-3
8.080000E-8	2.100288E-3
8.090000E-8	2.155108E-3
8.100000E-8	1.286561E-3
8.110000E-8	1.194053E-3
8.120000E-8	7.829065E-4
8.130000E-8	9.542175E-4
8.140000E-8	1.588068E-3
8.150000E-8	5.259400E-4
8.160000E-8	1.267853E-4
8.170000E-8	7.092427E-4
8.180000E-8	1.713125E-3
8.190000E-8	2.033477E-3
8.200000E-8	1.879297E-3
8.210000E-8	2.473746E-3
8.220000E-8	1.749101E-3
8.230000E-8	1.910133E-3
8.240000E-8	1.791928E-3
8.250000E-8	1.382495E-3
8.260000E-8	1.039873E-3
8.270000E-8	1.050152E-3
8.280000E-8	1.144373E-3
8.290000E-8	4.796860E-4
8.300000E-8	7.554967E-4
8.310000E-8	8.205949E-4
8.320000E-8	1.711412E-3
8.330000E-8	2.209927E-3
8.340000E-8	1.831330E-3
8.350000E-8	1.987223E-3
8.360000E-8	2.057460E-3
8.370000E-8	2.422353E-3
8.380000E-8	2.131124E-3
8.390000E-8	1.266003E-3
8.400000E-8	1.118676E-3
8.410000E-8	1.242020E-3
8.420000E-8	1.343093E-3
8.430000E-8	9.799141E-4
8.440000E-8	3.803256E-4
8.450000E-8	3.854649E-4
8.460000E-8	1.175209E-3
8.470000E-8	1.343093E-3
8.480000E-8	1.706273E-3
8.490000E-8	1.514404E-3
8.500000E-8	2.012919E-3
8.510000E-8	2.124272E-3
8.520000E-8	1.582929E-3
8.530000E-8	2.264747E-3
8.540000E-8	1.365364E-3
8.550000E-8	8.891193E-4
8.560000E-8	1.389347E-3
8.570000E-8	1.149512E-3
8.580000E-8	3.580552E-4
8.590000E-8	2.501292E-4
8.600000E-8	1.079274E-3
8.610000E-8	1.404765E-3
8.620000E-8	1.576076E-3
8.630000E-8	1.065570E-3
8.640000E-8	1.531536E-3
8.650000E-8	2.102001E-3
8.660000E-8	2.718721E-3
8.670000E-8	1.846748E-3
8.680000E-8	4.128747E-4
8.690000E-8	3.340716E-4
8.700000E-8	1.305405E-3
8.710000E-8	1.272856E-3
8.720000E-8	3.289323E-4
8.730000E-8	-7.022232E-5
8.740000E-8	8.617095E-4
8.750000E-8	1.163217E-3
8.760000E-8	2.257894E-3
8.770000E-8	2.078018E-3
8.780000E-8	2.209927E-3
8.790000E-8	2.078018E-3
8.800000E-8	2.026624E-3
8.810000E-8	2.415500E-3
8.820000E-8	1.187200E-3
8.830000E-8	1.552093E-3
8.840000E-8	1.257438E-3
8.850000E-8	1.488708E-3
8.860000E-8	4.882515E-4
8.870000E-8	4.659811E-4
8.880000E-8	6.218741E-4
8.890000E-8	1.317397E-3
8.900000E-8	1.356798E-3
8.910000E-8	7.298001E-4
8.920000E-8	9.576437E-4
8.930000E-8	1.475003E-3
8.940000E-8	2.681032E-3
8.950000E-8	2.569680E-3
8.960000E-8	1.858740E-3
8.970000E-8	1.272856E-3
8.980000E-8	5.944644E-4
8.990000E-8	6.852592E-4
9.000000E-8	7.503574E-4
9.010000E-8	3.255061E-4
9.020000E-8	2.655472E-4
9.030000E-8	6.732674E-4
9.040000E-8	1.231741E-3
9.050000E-8	1.666871E-3
9.060000E-8	1.492134E-3
9.070000E-8	1.531536E-3
9.080000E-8	2.055747E-3
9.090000E-8	2.472033E-3
9.100000E-8	2.030051E-3
9.110000E-8	8.959717E-4
9.120000E-8	6.424314E-4
9.130000E-8	1.231741E-3
9.140000E-8	1.497273E-3
9.150000E-8	6.030299E-4
9.160000E-8	-8.050098E-5
9.170000E-8	-4.109945E-5
9.180000E-8	8.582833E-4
9.190000E-8	1.666871E-3
9.200000E-8	1.127242E-3
9.210000E-8	1.507552E-3
9.220000E-8	1.709699E-3
9.230000E-8	1.719978E-3
9.240000E-8	2.348689E-3
9.250000E-8	1.654879E-3
9.260000E-8	5.379317E-4
9.270000E-8	8.805537E-4
9.280000E-8	1.392774E-3
9.290000E-8	7.367892E-5
9.300000E-8	-4.334016E-4
9.310000E-8	2.518424E-4
9.320000E-8	5.841857E-4
9.330000E-8	1.260864E-3
9.340000E-8	1.432175E-3
9.350000E-8	8.034638E-4
9.360000E-8	2.129411E-3
9.370000E-8	2.436058E-3
9.380000E-8	2.112280E-3
9.390000E-8	1.254012E-3
9.400000E-8	4.111616E-4
9.410000E-8	7.966113E-4
9.420000E-8	1.721691E-3
9.430000E-8	1.473290E-3
9.440000E-8	9.593568E-4
9.450000E-8	3.135143E-4
9.460000E-8	5.893250E-4
9.470000E-8	1.485282E-3
9.480000E-8	1.522970E-3
9.490000E-8	7.846196E-4
9.500000E-8	8.788406E-4
9.510000E-8	1.516118E-3
9.520000E-8	1.730256E-3
9.530000E-8	2.386377E-3
9.540000E-8	1.404765E-3
9.550000E-8	6.903985E-4
9.560000E-8	1.207758E-3
9.570000E-8	1.644601E-3
9.580000E-8	1.608625E-3
9.590000E-8	2.347113E-4
9.600000E-8	1.901704E-4
9.610000E-8	1.301979E-3
9.620000E-8	1.769658E-3
9.630000E-8	9.439388E-4
9.640000E-8	1.490421E-3
9.650000E-8	2.167099E-3
9.660000E-8	2.173952E-3
9.670000E-8	2.115706E-3
9.680000E-8	1.961526E-3
9.690000E-8	9.679223E-4
9.700000E-8	6.595625E-4
9.710000E-8	1.767945E-3
9.720000E-8	1.178635E-3
9.730000E-8	7.469312E-4
9.740000E-8	4.111616E-4
9.750000E-8	4.282927E-4
9.760000E-8	1.512691E-3
9.770000E-8	1.903280E-3
9.780000E-8	1.149512E-3
9.790000E-8	1.029594E-3
9.800000E-8	1.904994E-3
9.810000E-8	1.651453E-3
9.820000E-8	1.375643E-3
9.830000E-8	1.027881E-3
9.840000E-8	8.548571E-4
9.850000E-8	9.387995E-4
9.860000E-8	9.405126E-4
9.870000E-8	7.435049E-4
9.880000E-8	-1.884269E-4
9.890000E-8	-3.082079E-5
9.900000E-8	8.993979E-4
9.910000E-8	1.692568E-3
9.920000E-8	2.167099E-3
9.930000E-8	1.752527E-3
9.940000E-8	2.434345E-3
9.950000E-8	2.477172E-3
9.960000E-8	1.874158E-3
9.970000E-8	1.790215E-3
9.980000E-8	8.908324E-4
9.990000E-8	8.034638E-4
1.000000E-7	6.595625E-4
1.001000E-7	5.824726E-4
1.002000E-7	6.766936E-4
1.003000E-7	3.118012E-4
1.004000E-7	8.223080E-4
1.005000E-7	1.877584E-3
1.006000E-7	1.858740E-3
1.007000E-7	1.108397E-3
1.008000E-7	1.954674E-3
1.009000E-7	1.964952E-3
1.010000E-7	2.814655E-3
1.011000E-7	2.173952E-3
1.012000E-7	1.365364E-3
1.013000E-7	1.329389E-3
1.014000E-7	1.164930E-3
1.015000E-7	1.577790E-3
1.016000E-7	4.865384E-4
1.017000E-7	3.770361E-5
1.018000E-7	2.723997E-4
1.019000E-7	9.901928E-4
1.020000E-7	1.266003E-3
1.021000E-7	1.120389E-3
1.022000E-7	1.111824E-3
1.023000E-7	1.682289E-3
1.024000E-7	1.747387E-3
1.025000E-7	1.759379E-3
1.026000E-7	1.711412E-3
1.027000E-7	1.247159E-3
1.028000E-7	1.457872E-3
1.029000E-7	1.267717E-3
1.030000E-7	7.846196E-4
1.031000E-7	1.303692E-3
1.032000E-7	3.940305E-4
1.033000E-7	4.916778E-4
1.034000E-7	1.322536E-3
1.035000E-7	6.647019E-4
1.036000E-7	1.002185E-3
1.037000E-7	1.456159E-3
1.038000E-7	2.329845E-3
1.039000E-7	2.086583E-3
1.040000E-7	1.968379E-3
1.041000E-7	1.334528E-3
1.042000E-7	1.091266E-3
1.043000E-7	1.648027E-3
1.044000E-7	1.130668E-3
1.045000E-7	5.550628E-4
1.046000E-7	4.334320E-4
1.047000E-7	8.428653E-4
1.048000E-7	1.289987E-3
1.049000E-7	1.380782E-3
1.050000E-7	9.662092E-4
1.051000E-7	1.882723E-3
1.052000E-7	2.326419E-3
1.053000E-7	2.609082E-3
1.054000E-7	2.454902E-3
1.055000E-7	1.358511E-3
1.056000E-7	9.182422E-4
1.057000E-7	1.510978E-3
1.058000E-7	1.168356E-3
1.059000E-7	5.173744E-4
1.060000E-7	4.300058E-4
1.061000E-7	2.295719E-4
1.062000E-7	9.713486E-4
1.063000E-7	1.068996E-3
1.064000E-7	9.747748E-4
1.065000E-7	1.029594E-3
1.066000E-7	1.550380E-3
1.067000E-7	1.999215E-3
1.068000E-7	2.218493E-3
1.069000E-7	2.047182E-3
1.070000E-7	1.439028E-3
1.071000E-7	1.178635E-3
1.072000E-7	1.480142E-3
1.073000E-7	1.060430E-3
1.074000E-7	2.604079E-4
1.075000E-7	4.008829E-4
1.076000E-7	6.270134E-4
1.077000E-7	1.884436E-3
1.078000E-7	2.173952E-3
1.079000E-7	1.463011E-3
1.080000E-7	1.992362E-3
1.081000E-7	1.855313E-3
1.082000E-7	1.939256E-3
1.083000E-7	2.352115E-3
1.084000E-7	1.101545E-3
1.085000E-7	1.416757E-3
1.086000E-7	1.473290E-3
1.087000E-7	9.096766E-4
1.088000E-7	1.279708E-3
1.089000E-7	8.514309E-4
1.090000E-7	3.220799E-4
1.091000E-7	1.218036E-3
1.092000E-7	1.339667E-3
1.093000E-7	1.723404E-3
1.094000E-7	1.565798E-3
1.095000E-7	1.648027E-3
1.096000E-7	1.666871E-3
1.097000E-7	2.446336E-3
1.098000E-7	1.738822E-3
1.099000E-7	5.584890E-4
1.100000E-7	1.017603E-3
1.101000E-7	1.164930E-3
1.102000E-7	3.888912E-4
1.103000E-7	2.604079E-4
1.104000E-7	-7.536165E-5
1.105000E-7	1.343093E-3
1.106000E-7	2.271599E-3
1.107000E-7	2.239050E-3
1.108000E-7	1.716551E-3
1.109000E-7	2.297296E-3
1.110000E-7	2.461754E-3
1.111000E-7	2.639918E-3
1.112000E-7	1.994075E-3
1.113000E-7	6.304397E-4
1.114000E-7	5.826093E-5
1.115000E-7	9.439388E-4
1.116000E-7	1.687429E-3
1.117000E-7	1.538388E-3
1.118000E-7	1.005611E-3
1.119000E-7	8.342998E-4
1.120000E-7	1.358511E-3
1.121000E-7	1.403052E-3
1.122000E-7	9.644961E-4
1.123000E-7	1.548667E-3
1.124000E-7	2.499443E-3
1.125000E-7	1.932403E-3
1.126000E-7	2.059173E-3
1.127000E-7	1.519544E-3
1.128000E-7	1.132381E-3
1.129000E-7	2.312714E-3
1.130000E-7	1.370503E-3
1.131000E-7	3.392110E-4
1.132000E-7	7.058165E-4
1.133000E-7	5.156613E-4
1.134000E-7	6.869723E-4
1.135000E-7	1.978657E-3
1.136000E-7	1.802207E-3
1.137000E-7	1.413331E-3
1.138000E-7	1.730256E-3
1.139000E-7	1.839895E-3
1.140000E-7	2.370959E-3
1.141000E-7	1.721691E-3
1.142000E-7	7.366525E-4
1.143000E-7	5.122351E-4
1.144000E-7	1.699420E-3
1.145000E-7	1.046725E-3
1.146000E-7	5.499235E-4
1.147000E-7	-1.540280E-5
1.148000E-7	2.638341E-4
1.149000E-7	1.101545E-3
1.150000E-7	8.993979E-4
1.151000E-7	4.968171E-4
1.152000E-7	1.240307E-3
1.153000E-7	2.384664E-3
1.154000E-7	2.388091E-3
1.155000E-7	1.887862E-3
1.156000E-7	8.805537E-4
1.157000E-7	7.280869E-4
1.158000E-7	1.423610E-3
1.159000E-7	8.599964E-4
1.160000E-7	5.482104E-4
1.161000E-7	1.336378E-4
1.162000E-7	3.614814E-4
1.163000E-7	1.656593E-3
1.164000E-7	2.084870E-3
1.165000E-7	1.475003E-3
1.166000E-7	1.733683E-3
1.167000E-7	1.855313E-3
1.168000E-7	2.213353E-3
1.169000E-7	2.074591E-3
1.170000E-7	1.629183E-3
1.171000E-7	4.745467E-4
1.172000E-7	5.464973E-4
1.173000E-7	8.634226E-4
1.174000E-7	6.664150E-4
1.175000E-7	5.053826E-4
1.176000E-7	-1.368969E-5
1.177000E-7	4.419976E-4
1.178000E-7	1.423610E-3
1.179000E-7	1.851887E-3
1.180000E-7	6.561363E-4
1.181000E-7	1.339667E-3
1.182000E-7	1.904994E-3
1.183000E-7	2.021485E-3
1.184000E-7	2.004354E-3
1.185000E-7	1.332815E-3
1.186000E-7	1.086127E-3
1.187000E-7	1.041586E-3
1.188000E-7	1.509265E-3
1.189000E-7	1.128955E-3
1.190000E-7	5.636284E-4
1.191000E-7	1.118676E-3
1.192000E-7	1.415044E-3
1.193000E-7	1.313971E-3
1.194000E-7	1.168356E-3
1.195000E-7	1.589781E-3
1.196000E-7	2.151681E-3
1.197000E-7	2.295583E-3
1.198000E-7	2.321279E-3
1.199000E-7	1.430462E-3
1.200000E-7	8.891193E-4
1.201000E-7	1.146086E-3
1.202000E-7	1.242020E-3
1.203000E-7	6.818330E-4
1.204000E-7	3.786125E-4
1.205000E-7	6.867627E-6
1.206000E-7	8.702751E-4
1.207000E-7	1.387634E-3
1.208000E-7	1.994075E-3
1.209000E-7	8.411522E-4
1.210000E-7	1.660019E-3
1.211000E-7	2.149968E-3
1.212000E-7	2.156821E-3
1.213000E-7	1.582929E-3
1.214000E-7	9.199553E-4
1.215000E-7	4.916778E-4
1.216000E-7	8.976848E-4
1.217000E-7	5.105220E-4
1.218000E-7	5.208006E-4
1.219000E-7	1.867442E-4
1.220000E-7	3.837518E-4
1.221000E-7	1.298553E-3
1.222000E-7	2.151681E-3
1.223000E-7	1.147799E-3
1.224000E-7	8.548571E-4
1.225000E-7	1.872444E-3
1.226000E-7	2.078018E-3
1.227000E-7	1.841608E-3
1.228000E-7	1.363651E-3
1.229000E-7	1.404902E-4
1.230000E-7	7.572098E-4
1.231000E-7	1.128955E-3
1.232000E-7	9.182422E-4
1.233000E-7	2.210064E-4
1.234000E-7	4.813991E-4
1.235000E-7	1.644601E-3
1.236000E-7	2.076305E-3
1.237000E-7	1.697707E-3
1.238000E-7	1.548667E-3
1.239000E-7	1.721691E-3
1.240000E-7	1.916985E-3
1.241000E-7	2.038616E-3
1.242000E-7	2.033477E-3
1.243000E-7	4.694073E-4
1.244000E-7	1.771371E-3
1.245000E-7	1.397913E-3
1.246000E-7	1.418470E-3
1.247000E-7	5.533497E-4
1.248000E-7	3.529158E-4
1.249000E-7	1.404902E-4
1.250000E-7	1.471577E-3
1.251000E-7	1.749101E-3
1.252000E-7	1.522970E-3
1.253000E-7	1.488708E-3
1.254000E-7	1.707986E-3
1.255000E-7	2.334984E-3
1.256000E-7	2.658762E-3
1.257000E-7	8.377260E-4
1.258000E-7	9.644961E-4
1.259000E-7	1.632609E-3
1.260000E-7	1.339667E-3
1.261000E-7	6.818330E-4
1.262000E-7	3.340716E-4
1.263000E-7	5.550628E-4
1.264000E-7	1.296839E-3
1.265000E-7	1.341380E-3
1.266000E-7	9.799141E-4
1.267000E-7	1.096406E-3
1.268000E-7	1.767945E-3
1.269000E-7	2.288730E-3
1.270000E-7	2.893458E-3
1.271000E-7	2.605656E-3
1.272000E-7	7.914720E-4
1.273000E-7	1.411618E-3
1.274000E-7	9.679223E-4
1.275000E-7	1.584642E-3
1.276000E-7	5.602022E-4
1.277000E-7	4.454238E-4
1.278000E-7	8.034638E-4
1.279000E-7	1.416757E-3
1.280000E-7	1.015889E-3
1.281000E-7	1.495560E-3
1.282000E-7	2.295583E-3
1.283000E-7	2.090009E-3
1.284000E-7	2.105427E-3
1.285000E-7	1.987223E-3
1.286000E-7	1.206045E-3
1.287000E-7	8.274473E-4
1.288000E-7	1.101545E-3
1.289000E-7	7.966113E-4
1.290000E-7	6.253003E-4
1.291000E-7	-8.735342E-5
1.292000E-7	5.567759E-4
1.293000E-7	1.226602E-3
1.294000E-7	1.353372E-3
1.295000E-7	8.771275E-4
1.296000E-7	1.267717E-3
1.297000E-7	1.416757E-3
1.298000E-7	2.252755E-3
1.299000E-7	2.245902E-3
1.300000E-7	1.368790E-3
1.301000E-7	7.537836E-4
1.302000E-7	8.942586E-4
1.303000E-7	5.739070E-4
1.304000E-7	3.083750E-4
1.305000E-7	2.038753E-4
1.306000E-7	2.843914E-4
1.307000E-7	8.053136E-5
1.308000E-7	1.416757E-3
1.309000E-7	1.128955E-3
1.310000E-7	8.497178E-4
1.311000E-7	2.134550E-3
1.312000E-7	2.408648E-3
1.313000E-7	2.660475E-3
1.314000E-7	1.545240E-3
1.315000E-7	8.617095E-4
1.316000E-7	1.608625E-3
1.317000E-7	1.601773E-3
1.318000E-7	1.219750E-3
1.319000E-7	1.094692E-3
1.320000E-7	6.030299E-4
1.321000E-7	3.426372E-4
1.322000E-7	1.355085E-3
1.323000E-7	2.129411E-3
1.324000E-7	1.392774E-3
1.325000E-7	1.653166E-3
1.326000E-7	2.043755E-3
1.327000E-7	2.657049E-3
1.328000E-7	2.334984E-3
1.329000E-7	1.704560E-3
1.330000E-7	6.441446E-4
1.331000E-7	1.517831E-3
1.332000E-7	1.781650E-3
1.333000E-7	1.353372E-3
1.334000E-7	5.259400E-4
1.335000E-7	2.038753E-4
1.336000E-7	7.178083E-4
1.337000E-7	1.512691E-3
1.338000E-7	1.276282E-3
1.339000E-7	1.498986E-3
1.340000E-7	1.851887E-3
1.341000E-7	2.233911E-3
1.342000E-7	2.675893E-3
1.343000E-7	9.919059E-4
1.344000E-7	3.700469E-4
1.345000E-7	8.719882E-4
1.346000E-7	1.033021E-3
1.347000E-7	7.367892E-5
1.348000E-7	-3.802952E-4
1.349000E-7	7.452180E-4
1.350000E-7	9.610699E-4
1.351000E-7	1.456159E-3
1.352000E-7	1.012463E-3
1.353000E-7	1.103258E-3
1.354000E-7	1.764518E-3
1.355000E-7	2.086583E-3
1.356000E-7	1.497273E-3
1.357000E-7	1.536675E-3
1.358000E-7	1.274569E-3
1.359000E-7	8.874062E-4
1.360000E-7	1.139233E-3
1.361000E-7	1.146086E-3
1.362000E-7	5.636284E-4
1.363000E-7	3.255061E-4
1.364000E-7	9.199553E-4
1.365000E-7	1.622330E-3
1.366000E-7	1.749101E-3
1.367000E-7	1.089553E-3
1.368000E-7	1.800494E-3
1.369000E-7	2.031764E-3
1.370000E-7	1.997501E-3
1.371000E-7	1.735396E-3
1.372000E-7	1.692568E-3
1.373000E-7	2.843914E-4
1.374000E-7	4.848253E-4
1.375000E-7	6.698412E-4
1.376000E-7	2.826783E-4
1.377000E-7	4.214402E-4
1.378000E-7	2.604079E-4
1.379000E-7	1.094692E-3
1.380000E-7	1.810772E-3
1.381000E-7	1.498986E-3
1.382000E-7	1.082701E-3
1.383000E-7	1.558945E-3
1.384000E-7	1.947821E-3
1.385000E-7	1.776510E-3
1.386000E-7	1.723404E-3
1.387000E-7	7.554967E-4
1.388000E-7	9.473650E-4
1.389000E-7	1.658306E-3
1.390000E-7	1.074135E-3
1.391000E-7	9.233815E-4
1.392000E-7	4.694073E-4
1.393000E-7	6.201610E-4
1.394000E-7	1.810772E-3
1.395000E-7	1.620617E-3
1.396000E-7	1.298553E-3
1.397000E-7	1.785076E-3
1.398000E-7	1.747387E-3
1.399000E-7	2.299009E-3
1.400000E-7	2.204788E-3
1.401000E-7	1.567511E-3
1.402000E-7	9.953321E-4
1.403000E-7	1.639461E-3
1.404000E-7	1.833043E-3
1.405000E-7	1.522970E-3
1.406000E-7	3.597683E-4
1.407000E-7	3.546290E-4
1.408000E-7	1.325962E-3
1.409000E-7	1.615478E-3
1.410000E-7	1.660019E-3
1.411000E-7	1.324249E-3
1.412000E-7	2.161960E-3
1.413000E-7	2.451476E-3
1.414000E-7	2.612508E-3
1.415000E-7	2.136263E-3
1.416000E-7	1.046725E-3
1.417000E-7	6.852592E-4
1.418000E-7	5.088089E-4
1.419000E-7	5.242268E-4
1.420000E-7	7.366525E-4
1.421000E-7	-2.346809E-4
1.422000E-7	7.811934E-4
1.423000E-7	1.685715E-3
1.424000E-7	1.893002E-3
1.425000E-7	8.925455E-4
1.426000E-7	1.822764E-3
1.427000E-7	1.737109E-3
1.428000E-7	2.264747E-3
1.429000E-7	2.422353E-3
1.430000E-7	1.089553E-3
1.431000E-7	1.209471E-3
1.432000E-7	1.031307E-3
1.433000E-7	7.554967E-4
1.434000E-7	5.704808E-4
1.435000E-7	5.088089E-4
1.436000E-7	2.998094E-4
1.437000E-7	2.552686E-4
1.438000E-7	1.221463E-3
1.439000E-7	1.281421E-3
1.440000E-7	1.370503E-3
1.441000E-7	2.321279E-3
1.442000E-7	2.134550E-3
1.443000E-7	2.213353E-3
1.444000E-7	1.903280E-3
1.445000E-7	1.442454E-3
1.446000E-7	1.130668E-3
1.447000E-7	1.370503E-3
1.448000E-7	1.214610E-3
1.449000E-7	1.480142E-3
1.450000E-7	-8.050098E-5
1.451000E-7	8.480046E-4
1.452000E-7	1.973518E-3
1.453000E-7	1.594921E-3
1.454000E-7	2.155108E-3
1.455000E-7	1.829617E-3
1.456000E-7	1.879297E-3
1.457000E-7	1.968379E-3
1.458000E-7	1.507552E-3
1.459000E-7	9.370864E-4
1.460000E-7	8.651357E-4
1.461000E-7	1.454446E-3
1.462000E-7	1.158078E-3
1.463000E-7	4.437107E-4
1.464000E-7	5.961775E-4
1.465000E-7	1.060430E-3
1.466000E-7	1.235168E-3
1.467000E-7	1.612052E-3
1.468000E-7	4.968171E-4
1.469000E-7	1.582929E-3
1.470000E-7	2.045469E-3
1.471000E-7	2.369246E-3
1.472000E-7	2.228771E-3
1.473000E-7	3.152274E-4
1.474000E-7	1.216323E-3
1.475000E-7	1.798781E-3
1.476000E-7	1.684002E-3
1.477000E-7	6.801199E-4
1.478000E-7	2.655472E-4
1.479000E-7	3.683338E-4
1.480000E-7	9.730617E-4
1.481000E-7	1.776510E-3
1.482000E-7	1.574363E-3
1.483000E-7	8.651357E-4
1.484000E-7	1.480142E-3
1.485000E-7	3.001384E-3
1.486000E-7	2.657049E-3
1.487000E-7	1.154651E-3
1.488000E-7	9.250946E-4
1.489000E-7	8.617095E-4
1.490000E-7	1.346520E-3
1.491000E-7	5.208006E-4
1.492000E-7	2.227195E-4
1.493000E-7	-5.137811E-5
1.494000E-7	6.869723E-4
1.495000E-7	1.276282E-3
1.496000E-7	1.430462E-3
1.497000E-7	1.439028E-3
1.498000E-7	1.483568E-3
1.499000E-7	2.146542E-3
1.500000E-7	2.540557E-3
1.501000E-7	1.975231E-3
1.502000E-7	1.985510E-3
1.503000E-7	8.240211E-4
1.504000E-7	1.192340E-3
1.505000E-7	9.233815E-4
1.506000E-7	1.101545E-3
1.507000E-7	1.576213E-4
1.508000E-7	-6.837254E-6
1.509000E-7	1.463011E-3
1.510000E-7	1.802207E-3
1.511000E-7	1.132381E-3
1.512000E-7	1.922125E-3
1.513000E-7	2.463467E-3
1.514000E-7	2.559402E-3
1.515000E-7	2.170526E-3
1.516000E-7	1.111824E-3
1.517000E-7	5.122351E-4
1.518000E-7	8.308735E-4
1.519000E-7	1.247159E-3
1.520000E-7	7.709147E-4
1.521000E-7	5.996037E-4
1.522000E-7	-1.164763E-4
1.523000E-7	8.548571E-4
1.524000E-7	1.475003E-3
1.525000E-7	1.889576E-3
1.526000E-7	1.377356E-3
1.527000E-7	1.668584E-3
1.528000E-7	2.084870E-3
1.529000E-7	2.311001E-3
1.530000E-7	2.763262E-3
1.531000E-7	1.091266E-3
1.532000E-7	7.948982E-4
1.533000E-7	1.459585E-3
1.534000E-7	1.343093E-3
1.535000E-7	4.025960E-4
1.536000E-7	5.156613E-4
1.537000E-7	1.953097E-4
1.538000E-7	8.908324E-4
1.539000E-7	1.440741E-3
1.540000E-7	1.295126E-3
1.541000E-7	1.276282E-3
1.542000E-7	2.273312E-3
1.543000E-7	1.809059E-3
1.544000E-7	2.804376E-3
1.545000E-7	1.216323E-3
1.546000E-7	1.252299E-3
1.547000E-7	4.351451E-4
1.548000E-7	8.240211E-4
1.549000E-7	5.208006E-4
1.550000E-7	1.781786E-4
1.551000E-7	4.471369E-4
1.552000E-7	1.074135E-3
1.553000E-7	1.579503E-3
1.554000E-7	1.313971E-3
1.555000E-7	1.728543E-3
1.556000E-7	2.540557E-3
1.557000E-7	2.518287E-3
1.558000E-7	1.783363E-3
1.559000E-7	1.629183E-3
1.560000E-7	1.000471E-3
1.561000E-7	1.351659E-3
1.562000E-7	9.131028E-4
1.563000E-7	7.606360E-4
1.564000E-7	5.533497E-4
1.565000E-7	6.698412E-4
1.566000E-7	9.525044E-4
1.567000E-7	1.351659E-3
1.568000E-7	1.481855E-3
1.569000E-7	1.250585E-3
1.570000E-7	1.689142E-3
1.571000E-7	2.307574E-3
1.572000E-7	2.648483E-3
1.573000E-7	1.959813E-3
1.574000E-7	1.199192E-3
1.575000E-7	8.548571E-4
1.576000E-7	1.048439E-3
1.577000E-7	1.339667E-3
1.578000E-7	7.041034E-4
1.579000E-7	-3.460330E-4
1.580000E-7	4.865384E-4
1.581000E-7	8.993979E-4
1.582000E-7	8.668489E-4
1.583000E-7	1.022742E-3
1.584000E-7	1.331102E-3
1.585000E-7	2.011206E-3
1.586000E-7	2.055747E-3
1.587000E-7	2.263034E-3
1.588000E-7	1.983797E-3
1.589000E-7	1.618904E-3
1.590000E-7	1.164930E-3
1.591000E-7	1.230028E-3
1.592000E-7	1.046725E-3
1.593000E-7	5.961775E-4
1.594000E-7	-3.411034E-6
1.595000E-7	9.919059E-4
1.596000E-7	1.209471E-3
1.597000E-7	1.610339E-3
1.598000E-7	1.529822E-3
1.599000E-7	1.680576E-3
1.600000E-7	1.862166E-3
1.601000E-7	1.478429E-3
1.602000E-7	2.011206E-3
1.603000E-7	1.312257E-3
1.604000E-7	8.565702E-4
1.605000E-7	8.908324E-4
1.606000E-7	7.794802E-4
1.607000E-7	5.978906E-4
1.608000E-7	1.370640E-4
1.609000E-7	4.659811E-4
1.610000E-7	1.478429E-3
1.611000E-7	1.629183E-3
1.612000E-7	1.224889E-3
1.613000E-7	1.327675E-3
1.614000E-7	1.579503E-3
1.615000E-7	2.848917E-3
1.616000E-7	2.314427E-3
1.617000E-7	2.016346E-3
1.618000E-7	5.053826E-4
1.619000E-7	1.135807E-3
1.620000E-7	8.702751E-4
1.621000E-7	7.709147E-4
1.622000E-7	3.494896E-4
1.623000E-7	3.426372E-4
1.624000E-7	1.197479E-3
1.625000E-7	1.762805E-3
1.626000E-7	1.978657E-3
1.627000E-7	1.822764E-3
1.628000E-7	2.352115E-3
1.629000E-7	1.766232E-3
1.630000E-7	1.639461E-3
1.631000E-7	1.478429E-3
1.632000E-7	6.989641E-4
1.633000E-7	1.079274E-3
1.634000E-7	8.788406E-4
1.635000E-7	8.120293E-4
1.636000E-7	3.991698E-4
1.637000E-7	-1.882902E-5
1.638000E-7	5.516366E-4
1.639000E-7	1.908420E-3
1.640000E-7	1.639461E-3
1.641000E-7	1.185487E-3
1.642000E-7	1.231741E-3
1.643000E-7	1.884436E-3
1.644000E-7	2.263034E-3
1.645000E-7	2.549123E-3
1.646000E-7	1.759379E-3
1.647000E-7	1.000471E-3
1.648000E-7	2.055747E-3
1.649000E-7	1.391061E-3
1.650000E-7	1.034734E-3
1.651000E-7	-2.106973E-4
1.652000E-7	3.460634E-4
1.653000E-7	1.166643E-3
1.654000E-7	1.596634E-3
1.655000E-7	7.246607E-4
1.656000E-7	1.344807E-3
1.657000E-7	2.004354E-3
1.658000E-7	2.355541E-3
1.659000E-7	1.500700E-3
1.660000E-7	1.396200E-3
1.661000E-7	8.925455E-4
1.662000E-7	9.456519E-4
1.663000E-7	9.919059E-4
1.664000E-7	1.242020E-3
1.665000E-7	5.533497E-4
1.666000E-7	1.113673E-4
1.667000E-7	1.094692E-3
1.668000E-7	1.550380E-3
1.669000E-7	1.478429E-3
1.670000E-7	1.211184E-3
1.671000E-7	1.976944E-3
1.672000E-7	1.624043E-3
1.673000E-7	1.949534E-3
1.674000E-7	1.646314E-3
1.675000E-7	1.420183E-3
1.676000E-7	9.662092E-4
1.677000E-7	1.755953E-3
1.678000E-7	1.276282E-3
1.679000E-7	6.167348E-4
1.680000E-7	2.742495E-5
1.681000E-7	-1.079107E-4
1.682000E-7	1.313971E-3
1.683000E-7	1.385921E-3
1.684000E-7	1.439028E-3
1.685000E-7	1.394487E-3
1.686000E-7	2.132837E-3
1.687000E-7	1.913559E-3
1.688000E-7	1.767945E-3
1.689000E-7	6.509970E-4
1.690000E-7	4.214402E-4
1.691000E-7	1.000471E-3
1.692000E-7	1.493847E-3
1.693000E-7	1.432175E-3
1.694000E-7	3.580552E-4
1.695000E-7	1.165067E-4
1.696000E-7	5.019564E-4
1.697000E-7	1.713125E-3
1.698000E-7	1.248872E-3
1.699000E-7	8.548571E-4
1.700000E-7	1.672011E-3
1.701000E-7	1.786789E-3
1.702000E-7	2.439484E-3
1.703000E-7	2.187657E-3
1.704000E-7	1.043299E-3
1.705000E-7	8.360129E-4
1.706000E-7	1.343093E-3
1.707000E-7	7.674885E-4
1.708000E-7	7.178083E-4
1.709000E-7	7.452180E-4
1.710000E-7	6.544232E-4
1.711000E-7	1.439028E-3
1.712000E-7	9.182422E-4
1.713000E-7	9.199553E-4
1.714000E-7	9.405126E-4
1.715000E-7	2.124272E-3
1.716000E-7	2.384664E-3
1.717000E-7	2.396656E-3
1.718000E-7	1.003898E-3
1.719000E-7	1.221463E-3
1.720000E-7	1.658306E-3
1.721000E-7	1.454446E-3
1.722000E-7	7.948982E-4
1.723000E-7	3.991698E-4
1.724000E-7	6.784068E-4
1.725000E-7	8.754144E-4
1.726000E-7	1.795354E-3
1.727000E-7	1.235168E-3
1.728000E-7	1.101545E-3
1.729000E-7	2.009493E-3
1.730000E-7	2.355541E-3
1.731000E-7	2.132837E-3
1.732000E-7	1.481855E-3
1.733000E-7	1.057004E-3
1.734000E-7	9.285208E-4
1.735000E-7	1.080988E-3
1.736000E-7	1.154651E-3
1.737000E-7	4.231534E-4
1.738000E-7	5.997404E-5
1.739000E-7	5.464973E-4
1.740000E-7	9.353733E-4
1.741000E-7	1.701133E-3
1.742000E-7	1.939256E-3
1.743000E-7	1.457872E-3
1.744000E-7	1.845035E-3
1.745000E-7	2.168812E-3
1.746000E-7	1.966665E-3
1.747000E-7	1.180348E-3
1.748000E-7	1.313971E-3
1.749000E-7	9.850534E-4
1.750000E-7	1.039873E-3
1.751000E-7	5.807595E-4
1.752000E-7	6.270134E-4
1.753000E-7	5.670546E-4
1.754000E-7	1.082701E-3
1.755000E-7	9.987583E-4
1.756000E-7	1.310544E-3
1.757000E-7	2.134550E-3
1.758000E-7	2.237337E-3
1.759000E-7	1.910133E-3
1.760000E-7	2.413787E-3
1.761000E-7	2.136263E-3
1.762000E-7	9.285208E-4
1.763000E-7	8.617095E-4
1.764000E-7	7.092427E-4
1.765000E-7	1.014176E-3
1.766000E-7	4.060223E-4
1.767000E-7	4.557024E-4
1.768000E-7	1.104971E-3
1.769000E-7	2.472033E-3
1.770000E-7	2.442910E-3
1.771000E-7	9.113897E-4
1.772000E-7	1.651453E-3
1.773000E-7	1.605199E-3
1.774000E-7	2.281878E-3
1.775000E-7	2.343550E-3
1.776000E-7	1.541814E-3
1.777000E-7	1.182061E-3
1.778000E-7	1.123815E-3
1.779000E-7	1.231741E-3
1.780000E-7	1.012463E-3
1.781000E-7	1.728297E-6
1.782000E-7	4.608418E-4
1.783000E-7	5.670546E-4
1.784000E-7	5.259400E-4
1.785000E-7	7.811934E-4
1.786000E-7	1.567511E-3
1.787000E-7	1.591494E-3
1.788000E-7	1.946108E-3
1.789000E-7	2.283591E-3
1.790000E-7	1.478429E-3
1.791000E-7	1.187200E-3
1.792000E-7	1.034734E-3
1.793000E-7	3.871780E-4
1.794000E-7	-9.420586E-5
1.795000E-7	-5.002129E-4
1.796000E-7	8.514309E-4
1.797000E-7	1.483568E-3
1.798000E-7	1.759379E-3
1.799000E-7	1.079274E-3
1.800000E-7	1.067283E-3
1.801000E-7	2.578246E-3
1.802000E-7	2.302435E-3
1.803000E-7	2.043755E-3
1.804000E-7	2.227058E-3
1.805000E-7	1.749101E-3
1.806000E-7	2.035190E-3
1.807000E-7	1.274569E-3
1.808000E-7	5.156613E-4
1.809000E-7	2.107277E-4
1.810000E-7	4.454238E-4
1.811000E-7	7.760540E-4
1.812000E-7	1.594921E-3
1.813000E-7	1.562372E-3
1.814000E-7	1.284848E-3
1.815000E-7	1.749101E-3
1.816000E-7	1.749101E-3
1.817000E-7	1.797068E-3
1.818000E-7	1.839895E-3
1.819000E-7	1.230028E-3
1.820000E-7	9.302339E-4
1.821000E-7	1.291700E-3
1.822000E-7	1.243733E-3
1.823000E-7	1.257438E-3
1.824000E-7	5.619153E-4
1.825000E-7	8.257342E-4
1.826000E-7	1.881010E-3
1.827000E-7	2.161960E-3
1.828000E-7	1.786789E-3
1.829000E-7	1.802207E-3
1.830000E-7	1.893002E-3
1.831000E-7	2.394943E-3
1.832000E-7	2.064313E-3
1.833000E-7	1.754240E-3
1.834000E-7	1.089553E-3
1.835000E-7	1.731969E-3
1.836000E-7	1.558945E-3
1.837000E-7	8.908324E-4
1.838000E-7	4.762598E-4
1.839000E-7	-9.077964E-5
1.840000E-7	4.454238E-4
1.841000E-7	1.476716E-3
1.842000E-7	1.533249E-3
1.843000E-7	1.827904E-3
1.844000E-7	2.374386E-3
1.845000E-7	1.973518E-3
1.846000E-7	2.290443E-3
1.847000E-7	2.293869E-3
1.848000E-7	8.908324E-4
1.849000E-7	3.083750E-4
1.850000E-7	6.372921E-4
1.851000E-7	9.302339E-4
1.852000E-7	4.694073E-4
1.853000E-7	7.914720E-4
1.854000E-7	5.088089E-4
1.855000E-7	1.255725E-3
1.856000E-7	1.810772E-3
1.857000E-7	9.542175E-4
1.858000E-7	7.298001E-4
1.859000E-7	1.641175E-3
1.860000E-7	2.540557E-3
1.861000E-7	1.723404E-3
1.862000E-7	9.970452E-4
1.863000E-7	1.298553E-3
1.864000E-7	1.300266E-3
1.865000E-7	1.190627E-3
1.866000E-7	9.216684E-4
1.867000E-7	3.941672E-5
1.868000E-7	-3.767323E-5
1.869000E-7	4.248665E-4
1.870000E-7	1.505839E-3
1.871000E-7	1.291700E-3
1.872000E-7	1.223176E-3
1.873000E-7	1.581216E-3
1.874000E-7	2.103714E-3
1.875000E-7	2.893458E-3
1.876000E-7	2.307574E-3
1.877000E-7	1.339667E-3
1.878000E-7	1.146086E-3
1.879000E-7	1.706273E-3
1.880000E-7	1.041586E-3
1.881000E-7	1.086127E-3
1.882000E-7	5.362186E-4
1.883000E-7	5.619153E-4
1.884000E-7	6.458577E-4
1.885000E-7	9.216684E-4
1.886000E-7	9.268077E-4
1.887000E-7	1.636035E-3
1.888000E-7	2.113993E-3
1.889000E-7	1.949534E-3
1.890000E-7	2.622787E-3
1.891000E-7	6.801199E-4
1.892000E-7	9.696355E-4
1.893000E-7	1.543527E-3
1.894000E-7	2.227195E-4
1.895000E-7	3.426372E-4
1.896000E-7	-2.980660E-4
1.897000E-7	-1.044845E-4
1.898000E-7	1.144373E-3
1.899000E-7	1.795354E-3
1.900000E-7	1.593207E-3
1.901000E-7	1.514404E-3
1.902000E-7	1.718265E-3
1.903000E-7	1.827904E-3
1.904000E-7	2.531992E-3
1.905000E-7	1.665158E-3
1.906000E-7	1.598347E-3
1.907000E-7	5.961775E-4
1.908000E-7	6.167348E-4
1.909000E-7	4.455605E-5
1.910000E-7	1.028018E-4
1.911000E-7	6.030299E-4
1.912000E-7	1.062143E-3
1.913000E-7	1.442454E-3
1.914000E-7	1.612052E-3
1.915000E-7	1.416757E-3
1.916000E-7	1.954674E-3
1.917000E-7	1.654879E-3
1.918000E-7	2.117419E-3
1.919000E-7	2.054034E-3
1.920000E-7	5.362186E-4
1.921000E-7	3.477765E-4
1.922000E-7	1.038160E-3
1.923000E-7	7.931851E-4
1.924000E-7	2.552686E-4
1.925000E-7	-2.072711E-4
1.926000E-7	3.135143E-4
1.927000E-7	1.110110E-3
1.928000E-7	1.658306E-3
1.929000E-7	1.790215E-3
1.930000E-7	1.236881E-3
1.931000E-7	1.887862E-3
1.932000E-7	1.920412E-3
1.933000E-7	2.211640E-3
1.934000E-7	1.743961E-3
1.935000E-7	1.089553E-3
1.936000E-7	7.674885E-4
1.937000E-7	1.149512E-3
1.938000E-7	6.030299E-4
1.939000E-7	4.711204E-4
1.940000E-7	4.968171E-4
1.941000E-7	1.480142E-3
1.942000E-7	1.582929E-3
1.943000E-7	1.505839E-3
1.944000E-7	6.355790E-4
1.945000E-7	1.937543E-3
1.946000E-7	2.125985E-3
1.947000E-7	2.136263E-3
1.948000E-7	1.870731E-3
1.949000E-7	1.492134E-3
1.950000E-7	6.732674E-4
1.951000E-7	9.216684E-4
1.952000E-7	8.874062E-4
1.953000E-7	8.428653E-4
1.954000E-7	3.580552E-4
1.955000E-7	5.824726E-4
1.956000E-7	8.017507E-4
1.957000E-7	1.541814E-3
1.958000E-7	1.543527E-3
1.959000E-7	2.175665E-3
1.960000E-7	2.691311E-3
1.961000E-7	2.581672E-3
1.962000E-7	2.494303E-3
1.963000E-7	1.360225E-3
1.964000E-7	1.327675E-3
1.965000E-7	1.212897E-3
1.966000E-7	6.903985E-4
1.967000E-7	5.756201E-4
1.968000E-7	2.141539E-4
1.969000E-7	2.398506E-4
1.970000E-7	7.280869E-4
1.971000E-7	1.678863E-3
1.972000E-7	1.305405E-3
1.973000E-7	9.679223E-4
1.974000E-7	1.678863E-3
1.975000E-7	2.340123E-3
1.976000E-7	2.086583E-3
1.977000E-7	8.839800E-4
1.978000E-7	1.094692E-3
1.979000E-7	1.317397E-3
1.980000E-7	1.279708E-3
1.981000E-7	1.468150E-3
1.982000E-7	9.901928E-4
1.983000E-7	1.233591E-4
1.984000E-7	1.156364E-3
1.985000E-7	1.519544E-3
1.986000E-7	1.798781E-3
1.987000E-7	1.468150E-3
1.988000E-7	2.180804E-3
1.989000E-7	1.966665E-3
1.990000E-7	2.249329E-3
1.991000E-7	2.156821E-3
1.992000E-7	1.334528E-3
1.993000E-7	9.148159E-4
1.994000E-7	1.137520E-3
1.995000E-7	3.957436E-4
1.996000E-7	2.107277E-4
1.997000E-7	3.974567E-4
1.998000E-7	4.351451E-4
1.999000E-7	8.360129E-4
2.000000E-7	1.529822E-3
2.001000E-7	1.548667E-3
