Study Name	Tungsten_Calibration
Sample Name	2024-10-02
Run Name	spot01
Operator	Elena
Date	10/2/2024
Time	9:52
Sign	FIX
Grating Spacing	03.40um
Channel	3
Number Traces	10000
Files in Batch	1
Batch Number	1
dt	100.000001E-12
time stamp (ms)	9:52:54 AM
	
Time	Amplitude
0.000000E+0	6.629319E-4
1.000000E-10	6.046916E-4
2.000000E-10	5.875621E-4
3.000000E-10	5.892751E-4
4.000000E-10	6.183952E-4
5.000000E-10	6.389506E-4
6.000000E-10	6.526542E-4
7.000000E-10	6.629319E-4
8.000000E-10	6.680708E-4
9.000000E-10	6.475154E-4
1.000000E-9	5.704326E-4
1.100000E-9	4.282578E-4
1.200000E-9	2.415462E-4
1.300000E-9	1.147879E-4
1.400000E-9	6.511237E-5
1.500000E-9	1.370563E-4
1.600000E-9	2.381203E-4
1.700000E-9	3.477491E-4
1.800000E-9	3.957117E-4
1.900000E-9	3.905729E-4
2.000000E-9	3.271937E-4
2.100000E-9	2.038613E-4
2.200000E-9	1.010843E-4
2.300000E-9	4.113107E-5
2.400000E-9	7.710302E-5
2.500000E-9	2.072872E-4
2.600000E-9	3.957117E-4
2.700000E-9	5.104794E-4
2.800000E-9	5.789974E-4
2.900000E-9	5.139053E-4
3.000000E-9	4.488132E-4
3.100000E-9	3.837211E-4
3.200000E-9	4.488132E-4
3.300000E-9	5.601549E-4
3.400000E-9	7.108945E-4
3.500000E-9	8.359399E-4
3.600000E-9	8.821895E-4
3.700000E-9	7.896902E-4
3.800000E-9	6.937650E-4
3.900000E-9	6.098305E-4
4.000000E-9	5.395995E-4
4.100000E-9	4.727945E-4
4.200000E-9	3.974247E-4
4.300000E-9	3.323326E-4
4.400000E-9	3.049254E-4
4.500000E-9	3.152031E-4
4.600000E-9	4.179801E-4
4.700000E-9	5.173312E-4
4.800000E-9	6.029787E-4
4.900000E-9	5.841362E-4
5.000000E-9	4.625168E-4
5.100000E-9	2.124261E-4
5.200000E-9	-7.192364E-5
5.300000E-9	-2.415057E-4
5.400000E-9	-2.192373E-4
5.500000E-9	-6.831536E-6
5.600000E-9	3.100642E-4
5.700000E-9	6.303859E-4
5.800000E-9	8.582082E-4
5.900000E-9	9.609852E-4
6.000000E-9	9.061708E-4
6.100000E-9	7.006168E-4
6.200000E-9	4.385355E-4
6.300000E-9	2.398333E-4
6.400000E-9	1.576117E-4
6.500000E-9	2.432592E-4
6.600000E-9	4.419614E-4
6.700000E-9	6.817744E-4
6.800000E-9	8.890413E-4
6.900000E-9	9.524205E-4
7.000000E-9	8.804766E-4
7.100000E-9	7.177463E-4
7.200000E-9	5.361736E-4
7.300000E-9	4.556650E-4
7.400000E-9	4.436743E-4
7.500000E-9	5.293218E-4
7.600000E-9	5.618679E-4
7.700000E-9	5.670067E-4
7.800000E-9	4.933499E-4
7.900000E-9	3.905729E-4
8.000000E-9	2.586757E-4
8.100000E-9	1.421951E-4
8.200000E-9	5.483467E-5
8.300000E-9	1.714976E-5
8.400000E-9	5.654762E-5
8.500000E-9	1.045102E-4
8.600000E-9	2.535369E-4
8.700000E-9	3.563139E-4
8.800000E-9	4.539520E-4
8.900000E-9	4.967758E-4
9.000000E-9	4.488132E-4
9.100000E-9	3.785822E-4
9.200000E-9	2.586757E-4
9.300000E-9	1.661764E-4
9.400000E-9	1.404822E-4
9.500000E-9	1.541858E-4
9.600000E-9	1.850189E-4
9.700000E-9	2.758052E-4
9.800000E-9	4.265448E-4
9.900000E-9	5.515902E-4
1.000000E-8	5.978398E-4
1.010000E-8	5.190441E-4
1.020000E-8	3.391844E-4
1.030000E-8	1.730282E-4
1.040000E-8	5.483467E-5
1.050000E-8	-4.109054E-5
1.060000E-8	-8.048839E-5
1.070000E-8	-6.507184E-5
1.080000E-8	-2.224809E-5
1.090000E-8	3.256632E-5
1.100000E-8	9.423252E-5
1.110000E-8	2.175649E-4
1.120000E-8	3.323326E-4
1.130000E-8	4.539520E-4
1.140000E-8	5.498772E-4
1.150000E-8	5.824233E-4
1.160000E-8	5.635808E-4
1.170000E-8	5.002017E-4
1.180000E-8	4.351096E-4
1.190000E-8	4.128412E-4
1.200000E-8	4.128412E-4
1.210000E-8	4.385355E-4
1.220000E-8	4.642297E-4
1.230000E-8	4.419614E-4
1.240000E-8	3.751563E-4
1.250000E-8	3.408973E-4
1.260000E-8	3.323326E-4
1.270000E-8	3.717304E-4
1.280000E-8	3.888599E-4
1.290000E-8	3.340455E-4
1.300000E-8	3.014995E-4
1.310000E-8	2.860829E-4
1.320000E-8	2.997865E-4
1.330000E-8	3.186290E-4
1.340000E-8	3.871470E-4
1.350000E-8	4.333966E-4
1.360000E-8	4.659427E-4
1.370000E-8	4.556650E-4
1.380000E-8	4.453873E-4
1.390000E-8	5.310348E-4
1.400000E-8	5.824233E-4
1.410000E-8	5.841362E-4
1.420000E-8	5.584420E-4
1.430000E-8	5.258959E-4
1.440000E-8	5.173312E-4
1.450000E-8	4.847851E-4
1.460000E-8	5.207571E-4
1.470000E-8	5.413125E-4
1.480000E-8	5.498772E-4
1.490000E-8	5.258959E-4
1.500000E-8	5.173312E-4
1.510000E-8	5.190441E-4
1.520000E-8	5.104794E-4
1.530000E-8	4.676556E-4
1.540000E-8	4.351096E-4
1.550000E-8	3.546009E-4
1.560000E-8	3.117772E-4
1.570000E-8	3.134901E-4
1.580000E-8	3.648786E-4
1.590000E-8	4.196930E-4
1.600000E-8	4.625168E-4
1.610000E-8	4.676556E-4
1.620000E-8	4.179801E-4
1.630000E-8	3.546009E-4
1.640000E-8	3.426103E-4
1.650000E-8	3.631657E-4
1.660000E-8	4.059894E-4
1.670000E-8	4.642297E-4
1.680000E-8	5.533031E-4
1.690000E-8	5.978398E-4
1.700000E-8	5.909880E-4
1.710000E-8	5.019146E-4
1.720000E-8	4.556650E-4
1.730000E-8	4.573779E-4
1.740000E-8	4.984887E-4
1.750000E-8	5.447384E-4
1.760000E-8	4.762204E-4
1.770000E-8	3.631657E-4
1.780000E-8	2.329815E-4
1.790000E-8	1.302045E-4
1.800000E-8	1.096491E-4
1.810000E-8	1.627505E-4
1.820000E-8	2.398333E-4
1.830000E-8	2.723793E-4
1.840000E-8	2.329815E-4
1.850000E-8	1.918707E-4
1.860000E-8	1.593246E-4
1.870000E-8	1.884448E-4
1.880000E-8	2.655275E-4
1.890000E-8	3.580268E-4
1.900000E-8	4.231189E-4
1.910000E-8	4.385355E-4
1.920000E-8	5.036276E-4
1.930000E-8	6.577931E-4
1.940000E-8	1.094595E-3
1.950000E-8	1.985329E-3
1.960000E-8	3.407078E-3
1.970000E-8	5.299888E-3
1.980000E-8	7.548991E-3
1.990000E-8	1.007045E-2
2.000000E-8	1.267585E-2
2.010000E-8	1.519903E-2
2.020000E-8	1.742929E-2
2.030000E-8	1.919191E-2
2.040000E-8	2.031732E-2
2.050000E-8	2.063764E-2
2.060000E-8	2.007408E-2
2.070000E-8	1.871057E-2
2.080000E-8	1.678008E-2
2.090000E-8	1.470398E-2
2.100000E-8	1.289340E-2
2.110000E-8	1.172859E-2
2.120000E-8	1.126267E-2
2.130000E-8	1.135859E-2
2.140000E-8	1.182965E-2
2.150000E-8	1.245659E-2
2.160000E-8	1.302529E-2
2.170000E-8	1.339015E-2
2.180000E-8	1.339015E-2
2.190000E-8	1.300131E-2
2.200000E-8	1.218766E-2
2.210000E-8	1.100915E-2
2.220000E-8	9.683327E-3
2.230000E-8	8.402040E-3
2.240000E-8	7.439362E-3
2.250000E-8	6.904922E-3
2.260000E-8	6.916913E-3
2.270000E-8	7.316030E-3
2.280000E-8	7.977229E-3
2.290000E-8	8.691529E-3
2.300000E-8	9.244812E-3
2.310000E-8	9.532587E-3
2.320000E-8	9.489764E-3
2.330000E-8	9.028980E-3
2.340000E-8	8.210190E-3
2.350000E-8	7.221818E-3
2.360000E-8	6.250575E-3
2.370000E-8	5.478035E-3
2.380000E-8	5.082343E-3
2.390000E-8	5.084056E-3
2.400000E-8	5.440350E-3
2.410000E-8	6.082706E-3
2.420000E-8	6.844969E-3
2.430000E-8	7.494177E-3
2.440000E-8	7.906998E-3
2.450000E-8	7.932692E-3
2.460000E-8	7.513019E-3
2.470000E-8	6.716497E-3
2.480000E-8	5.717848E-3
2.490000E-8	4.722624E-3
2.500000E-8	3.970638E-3
2.510000E-8	3.491012E-3
2.520000E-8	3.393374E-3
2.530000E-8	3.682863E-3
2.540000E-8	4.249849E-3
2.550000E-8	5.044658E-3
2.560000E-8	5.860022E-3
2.570000E-8	6.543489E-3
2.580000E-8	6.939181E-3
2.590000E-8	6.874089E-3
2.600000E-8	6.267705E-3
2.610000E-8	5.222805E-3
2.620000E-8	4.016888E-3
2.630000E-8	2.920600E-3
2.640000E-8	2.117227E-3
2.650000E-8	1.793479E-3
2.660000E-8	1.961348E-3
2.670000E-8	2.555742E-3
2.680000E-8	3.412217E-3
2.690000E-8	4.362904E-3
2.700000E-8	5.140583E-3
2.710000E-8	5.609932E-3
2.720000E-8	5.603080E-3
2.730000E-8	5.188546E-3
2.740000E-8	4.424570E-3
2.750000E-8	3.475596E-3
2.760000E-8	2.540325E-3
2.770000E-8	1.808896E-3
2.780000E-8	1.404639E-3
2.790000E-8	1.456028E-3
2.800000E-8	1.920237E-3
2.810000E-8	2.713333E-3
2.820000E-8	3.607493E-3
2.830000E-8	4.392024E-3
2.840000E-8	4.881928E-3
2.850000E-8	4.931603E-3
2.860000E-8	4.577023E-3
2.870000E-8	3.867861E-3
2.880000E-8	2.959998E-3
2.890000E-8	2.017875E-3
2.900000E-8	1.229918E-3
2.910000E-8	7.228852E-4
2.920000E-8	6.423765E-4
2.930000E-8	1.022651E-3
2.940000E-8	1.726674E-3
2.950000E-8	2.624260E-3
2.960000E-8	3.429346E-3
2.970000E-8	3.938092E-3
2.980000E-8	4.003185E-3
2.990000E-8	3.648604E-3
3.000000E-8	2.989118E-3
3.010000E-8	2.237133E-3
3.020000E-8	1.519407E-3
3.030000E-8	9.284392E-4
3.040000E-8	5.687197E-4
3.050000E-8	4.642297E-4
3.060000E-8	5.550161E-4
3.070000E-8	9.181615E-4
3.080000E-8	1.515981E-3
3.090000E-8	2.266253E-3
3.100000E-8	3.013099E-3
3.110000E-8	3.513281E-3
3.120000E-8	3.609206E-3
3.130000E-8	3.215228E-3
3.140000E-8	2.377595E-3
3.150000E-8	1.317279E-3
3.160000E-8	3.700175E-4
3.170000E-8	-2.791906E-4
3.180000E-8	-4.933094E-4
3.190000E-8	-2.569222E-4
3.200000E-8	3.306196E-4
3.210000E-8	1.110012E-3
3.220000E-8	1.933941E-3
3.230000E-8	2.598565E-3
3.240000E-8	3.047358E-3
3.250000E-8	3.211802E-3
3.260000E-8	3.061062E-3
3.270000E-8	2.554029E-3
3.280000E-8	1.764359E-3
3.290000E-8	8.736248E-4
3.300000E-8	4.798287E-5
3.310000E-8	-4.881705E-4
3.320000E-8	-5.823828E-4
3.330000E-8	-1.010438E-4
3.340000E-8	7.845514E-4
3.350000E-8	1.873988E-3
3.360000E-8	2.829814E-3
3.370000E-8	3.437911E-3
3.380000E-8	3.542401E-3
3.390000E-8	3.180969E-3
3.400000E-8	2.490650E-3
3.410000E-8	1.627323E-3
3.420000E-8	9.027449E-4
3.430000E-8	4.214060E-4
3.440000E-8	2.552498E-4
3.450000E-8	4.025635E-4
3.460000E-8	8.462176E-4
3.470000E-8	1.507416E-3
3.480000E-8	2.213152E-3
3.490000E-8	2.867499E-3
3.500000E-8	3.302588E-3
3.510000E-8	3.449902E-3
3.520000E-8	3.184394E-3
3.530000E-8	2.596853E-3
3.540000E-8	1.779775E-3
3.550000E-8	9.489946E-4
3.560000E-8	2.055743E-4
3.570000E-8	-2.603481E-4
3.580000E-8	-3.631251E-4
3.590000E-8	-9.076609E-5
3.600000E-8	5.207571E-4
3.610000E-8	1.339547E-3
3.620000E-8	2.172041E-3
3.630000E-8	2.786990E-3
3.640000E-8	3.026803E-3
3.650000E-8	2.841804E-3
3.660000E-8	2.267966E-3
3.670000E-8	1.476583E-3
3.680000E-8	6.714967E-4
3.690000E-8	4.284402E-5
3.700000E-8	-3.168755E-4
3.710000E-8	-3.477086E-4
3.720000E-8	-7.706249E-5
3.730000E-8	4.111283E-4
3.740000E-8	1.050059E-3
3.750000E-8	1.690702E-3
3.760000E-8	2.285096E-3
3.770000E-8	2.718472E-3
3.780000E-8	2.812684E-3
3.790000E-8	2.610556E-3
3.800000E-8	2.101810E-3
3.810000E-8	1.394362E-3
3.820000E-8	6.406636E-4
3.830000E-8	3.427927E-5
3.840000E-8	-3.511345E-4
3.850000E-8	-3.939582E-4
3.860000E-8	-1.113215E-4
3.870000E-8	3.957117E-4
3.880000E-8	1.104873E-3
3.890000E-8	1.822599E-3
3.900000E-8	2.321068E-3
3.910000E-8	2.512918E-3
3.920000E-8	2.297086E-3
3.930000E-8	1.781488E-3
3.940000E-8	1.113438E-3
3.950000E-8	4.745074E-4
3.960000E-8	6.682532E-5
3.970000E-8	-3.405636E-6
3.980000E-8	2.432592E-4
3.990000E-8	7.040427E-4
4.000000E-8	1.231631E-3
4.010000E-8	1.663295E-3
4.020000E-8	1.954496E-3
4.030000E-8	2.079542E-3
4.040000E-8	2.077829E-3
4.050000E-8	1.909960E-3
4.060000E-8	1.569083E-3
4.070000E-8	1.120290E-3
4.080000E-8	6.012657E-4
4.090000E-8	1.935836E-4
4.100000E-8	3.446165E-6
4.110000E-8	3.256632E-5
4.120000E-8	3.374714E-4
4.130000E-8	7.554312E-4
4.140000E-8	1.180243E-3
4.150000E-8	1.531398E-3
4.160000E-8	1.779775E-3
4.170000E-8	1.927089E-3
4.180000E-8	1.909960E-3
4.190000E-8	1.742090E-3
4.200000E-8	1.339547E-3
4.210000E-8	7.862643E-4
4.220000E-8	2.038613E-4
4.230000E-8	-2.723388E-4
4.240000E-8	-5.104389E-4
4.250000E-8	-4.265043E-4
4.260000E-8	-1.539629E-5
4.270000E-8	5.772844E-4
4.280000E-8	1.236770E-3
4.290000E-8	1.796905E-3
4.300000E-8	2.134356E-3
4.310000E-8	2.163476E-3
4.320000E-8	1.918524E-3
4.330000E-8	1.459454E-3
4.340000E-8	9.592723E-4
4.350000E-8	5.036276E-4
4.360000E-8	1.696023E-4
4.370000E-8	4.113107E-5
4.380000E-8	1.456210E-4
4.390000E-8	4.299707E-4
4.400000E-8	8.205233E-4
4.410000E-8	1.330982E-3
4.420000E-8	1.848293E-3
4.430000E-8	2.309077E-3
4.440000E-8	2.509492E-3
4.450000E-8	2.326206E-3
4.460000E-8	1.850006E-3
4.470000E-8	1.149410E-3
4.480000E-8	4.145542E-4
4.490000E-8	-1.627100E-4
4.500000E-8	-3.871064E-4
4.510000E-8	-2.415057E-4
4.520000E-8	2.261297E-4
4.530000E-8	8.701989E-4
4.540000E-8	1.529685E-3
4.550000E-8	2.048709E-3
4.560000E-8	2.358752E-3
4.570000E-8	2.434122E-3
4.580000E-8	2.333058E-3
4.590000E-8	2.009311E-3
4.600000E-8	1.577647E-3
4.610000E-8	1.096308E-3
4.620000E-8	6.475154E-4
4.630000E-8	4.008506E-4
4.640000E-8	2.895088E-4
4.650000E-8	4.059894E-4
4.660000E-8	6.783485E-4
4.670000E-8	1.003809E-3
4.680000E-8	1.317279E-3
4.690000E-8	1.586212E-3
4.700000E-8	1.743803E-3
4.710000E-8	1.781488E-3
4.720000E-8	1.668434E-3
4.730000E-8	1.394362E-3
4.740000E-8	9.661241E-4
4.750000E-8	4.950628E-4
4.760000E-8	1.113620E-4
4.770000E-8	-3.937759E-5
4.780000E-8	8.395482E-5
4.790000E-8	4.847851E-4
4.800000E-8	1.104873E-3
4.810000E-8	1.726674E-3
4.820000E-8	2.149773E-3
4.830000E-8	2.303938E-3
4.840000E-8	2.148060E-3
4.850000E-8	1.767785E-3
4.860000E-8	1.272742E-3
4.870000E-8	8.821895E-4
4.880000E-8	6.166823E-4
4.890000E-8	5.070535E-4
4.900000E-8	5.378866E-4
4.910000E-8	6.475154E-4
4.920000E-8	8.616341E-4
4.930000E-8	1.128854E-3
4.940000E-8	1.438898E-3
4.950000E-8	1.819173E-3
4.960000E-8	2.158337E-3
4.970000E-8	2.358752E-3
4.980000E-8	2.329632E-3
4.990000E-8	2.132643E-3
5.000000E-8	1.750655E-3
5.010000E-8	1.288159E-3
5.020000E-8	7.811255E-4
5.030000E-8	3.597398E-4
5.040000E-8	7.710302E-5
5.050000E-8	2.742747E-5
5.060000E-8	1.952966E-4
5.070000E-8	5.070535E-4
5.080000E-8	8.564953E-4
5.090000E-8	1.169965E-3
5.100000E-8	1.366954E-3
5.110000E-8	1.409778E-3
5.120000E-8	1.260752E-3
5.130000E-8	1.056910E-3
5.140000E-8	8.359399E-4
5.150000E-8	6.235341E-4
5.160000E-8	4.351096E-4
5.170000E-8	3.289067E-4
5.180000E-8	3.237678E-4
5.190000E-8	4.984887E-4
5.200000E-8	7.468665E-4
5.210000E-8	1.115151E-3
5.220000E-8	1.461167E-3
5.230000E-8	1.692415E-3
5.240000E-8	1.646165E-3
5.250000E-8	1.360103E-3
5.260000E-8	9.164485E-4
5.270000E-8	3.734434E-4
5.280000E-8	-9.247904E-5
5.290000E-8	-3.340050E-4
5.300000E-8	-3.203014E-4
5.310000E-8	-1.710924E-5
5.320000E-8	4.590909E-4
5.330000E-8	1.032929E-3
5.340000E-8	1.587925E-3
5.350000E-8	1.995607E-3
5.360000E-8	2.192596E-3
5.370000E-8	2.175467E-3
5.380000E-8	2.023014E-3
5.390000E-8	1.694128E-3
5.400000E-8	1.310427E-3
5.410000E-8	9.866795E-4
5.420000E-8	7.383017E-4
5.430000E-8	5.755715E-4
5.440000E-8	5.909880E-4
5.450000E-8	6.920521E-4
5.460000E-8	8.445046E-4
5.470000E-8	1.031216E-3
5.480000E-8	1.192234E-3
5.490000E-8	1.334408E-3
5.500000E-8	1.402926E-3
5.510000E-8	1.390936E-3
5.520000E-8	1.247048E-3
5.530000E-8	9.866795E-4
5.540000E-8	7.194593E-4
5.550000E-8	4.231189E-4
5.560000E-8	2.004354E-4
5.570000E-8	8.738072E-5
5.580000E-8	1.439081E-4
5.590000E-8	3.443232E-4
5.600000E-8	6.406636E-4
5.610000E-8	1.017513E-3
5.620000E-8	1.384084E-3
5.630000E-8	1.709544E-3
5.640000E-8	1.848293E-3
5.650000E-8	1.826025E-3
5.660000E-8	1.646165E-3
5.670000E-8	1.365241E-3
5.680000E-8	1.070614E-3
5.690000E-8	7.639960E-4
5.700000E-8	5.807103E-4
5.710000E-8	5.584420E-4
5.720000E-8	7.023298E-4
5.730000E-8	9.524205E-4
5.740000E-8	1.197372E-3
5.750000E-8	1.411491E-3
5.760000E-8	1.548527E-3
5.770000E-8	1.593064E-3
5.780000E-8	1.565657E-3
5.790000E-8	1.466306E-3
5.800000E-8	1.380658E-3
5.810000E-8	1.336121E-3
5.820000E-8	1.265890E-3
5.830000E-8	1.209363E-3
5.840000E-8	1.132280E-3
5.850000E-8	1.046633E-3
5.860000E-8	1.060336E-3
5.870000E-8	1.145984E-3
5.880000E-8	1.318992E-3
5.890000E-8	1.497139E-3
5.900000E-8	1.615332E-3
5.910000E-8	1.617045E-3
5.920000E-8	1.490287E-3
5.930000E-8	1.214502E-3
5.940000E-8	9.044579E-4
5.950000E-8	6.149693E-4
5.960000E-8	4.077024E-4
5.970000E-8	3.203419E-4
5.980000E-8	4.008506E-4
5.990000E-8	5.687197E-4
6.000000E-8	8.736248E-4
6.010000E-8	1.229918E-3
6.020000E-8	1.557092E-3
6.030000E-8	1.752368E-3
6.040000E-8	1.793479E-3
6.050000E-8	1.673572E-3
6.060000E-8	1.406352E-3
6.070000E-8	1.084318E-3
6.080000E-8	8.068197E-4
6.090000E-8	6.423765E-4
6.100000E-8	6.166823E-4
6.110000E-8	6.612190E-4
6.120000E-8	7.931161E-4
6.130000E-8	9.901054E-4
6.140000E-8	1.205937E-3
6.150000E-8	1.423482E-3
6.160000E-8	1.632462E-3
6.170000E-8	1.826025E-3
6.180000E-8	1.800331E-3
6.190000E-8	1.649591E-3
6.200000E-8	1.366954E-3
6.210000E-8	1.014087E-3
6.220000E-8	6.800614E-4
6.230000E-8	4.282578E-4
6.240000E-8	3.323326E-4
6.250000E-8	3.802952E-4
6.260000E-8	5.498772E-4
6.270000E-8	7.537183E-4
6.280000E-8	9.335780E-4
6.290000E-8	1.005522E-3
6.300000E-8	1.058623E-3
6.310000E-8	1.108299E-3
6.320000E-8	1.154549E-3
6.330000E-8	1.238483E-3
6.340000E-8	1.322418E-3
6.350000E-8	1.342973E-3
6.360000E-8	1.313853E-3
6.370000E-8	1.173391E-3
6.380000E-8	9.421428E-4
6.390000E-8	6.971909E-4
6.400000E-8	5.618679E-4
6.410000E-8	5.738585E-4
6.420000E-8	7.365888E-4
6.430000E-8	9.541334E-4
6.440000E-8	1.185382E-3
6.450000E-8	1.276168E-3
6.460000E-8	1.298436E-3
6.470000E-8	1.233344E-3
6.480000E-8	1.070614E-3
6.490000E-8	8.993190E-4
6.500000E-8	7.982550E-4
6.510000E-8	7.914032E-4
6.520000E-8	8.188104E-4
6.530000E-8	8.890413E-4
6.540000E-8	9.301521E-4
6.550000E-8	9.986701E-4
6.560000E-8	1.115151E-3
6.570000E-8	1.325844E-3
6.580000E-8	1.531398E-3
6.590000E-8	1.688989E-3
6.600000E-8	1.675285E-3
6.610000E-8	1.457741E-3
6.620000E-8	1.079179E-3
6.630000E-8	7.314499E-4
6.640000E-8	4.847851E-4
6.650000E-8	4.642297E-4
6.660000E-8	6.149693E-4
6.670000E-8	9.164485E-4
6.680000E-8	1.216215E-3
6.690000E-8	1.449176E-3
6.700000E-8	1.572508E-3
6.710000E-8	1.666721E-3
6.720000E-8	1.712970E-3
6.730000E-8	1.714683E-3
6.740000E-8	1.661582E-3
6.750000E-8	1.603342E-3
6.760000E-8	1.444037E-3
6.770000E-8	1.205937E-3
6.780000E-8	1.000383E-3
6.790000E-8	7.725607E-4
6.800000E-8	6.714967E-4
6.810000E-8	6.766355E-4
6.820000E-8	7.502924E-4
6.830000E-8	8.856154E-4
6.840000E-8	1.098021E-3
6.850000E-8	1.295011E-3
6.860000E-8	1.404639E-3
6.870000E-8	1.440611E-3
6.880000E-8	1.337834E-3
6.890000E-8	1.241909E-3
6.900000E-8	1.113438E-3
6.910000E-8	9.918183E-4
6.920000E-8	8.599212E-4
6.930000E-8	7.297370E-4
6.940000E-8	7.108945E-4
6.950000E-8	7.057557E-4
6.960000E-8	7.383017E-4
6.970000E-8	8.530694E-4
6.980000E-8	9.815406E-4
6.990000E-8	1.067188E-3
7.000000E-8	1.132280E-3
7.010000E-8	1.096308E-3
7.020000E-8	1.026077E-3
7.030000E-8	1.031216E-3
7.040000E-8	1.065475E-3
7.050000E-8	1.166539E-3
7.060000E-8	1.296723E-3
7.070000E-8	1.370380E-3
7.080000E-8	1.312140E-3
7.090000E-8	1.106586E-3
7.100000E-8	8.513564E-4
7.110000E-8	7.023298E-4
7.120000E-8	6.800614E-4
7.130000E-8	7.948291E-4
7.140000E-8	9.301521E-4
7.150000E-8	9.935313E-4
7.160000E-8	9.404298E-4
7.170000E-8	8.119586E-4
7.180000E-8	7.280240E-4
7.190000E-8	7.520053E-4
7.200000E-8	9.404298E-4
7.210000E-8	1.188808E-3
7.220000E-8	1.394362E-3
7.230000E-8	1.469731E-3
7.240000E-8	1.384084E-3
7.250000E-8	1.159687E-3
7.260000E-8	9.181615E-4
7.270000E-8	7.622830E-4
7.280000E-8	7.211722E-4
7.290000E-8	8.016809E-4
7.300000E-8	9.815406E-4
7.310000E-8	1.142558E-3
7.320000E-8	1.223067E-3
7.330000E-8	1.277881E-3
7.340000E-8	1.269316E-3
7.350000E-8	1.183669E-3
7.360000E-8	1.091169E-3
7.370000E-8	1.002096E-3
7.380000E-8	8.941802E-4
7.390000E-8	8.804766E-4
7.400000E-8	8.993190E-4
7.410000E-8	9.883924E-4
7.420000E-8	1.070614E-3
7.430000E-8	1.092882E-3
7.440000E-8	1.043207E-3
7.450000E-8	9.370039E-4
7.460000E-8	8.085327E-4
7.470000E-8	7.400147E-4
7.480000E-8	6.800614E-4
7.490000E-8	7.417276E-4
7.500000E-8	8.667730E-4
7.510000E-8	1.029503E-3
7.520000E-8	1.156262E-3
7.530000E-8	1.195659E-3
7.540000E-8	1.123715E-3
7.550000E-8	9.609852E-4
7.560000E-8	7.657089E-4
7.570000E-8	6.406636E-4
7.580000E-8	6.286729E-4
7.590000E-8	7.194593E-4
7.600000E-8	8.667730E-4
7.610000E-8	9.969572E-4
7.620000E-8	1.055197E-3
7.630000E-8	1.098021E-3
7.640000E-8	1.115151E-3
7.650000E-8	1.075753E-3
7.660000E-8	9.935313E-4
7.670000E-8	9.130226E-4
7.680000E-8	8.256622E-4
7.690000E-8	8.222363E-4
7.700000E-8	9.078838E-4
7.710000E-8	1.017513E-3
7.720000E-8	1.127141E-3
7.730000E-8	1.181956E-3
7.740000E-8	1.139132E-3
7.750000E-8	1.043207E-3
7.760000E-8	9.095967E-4
7.770000E-8	8.445046E-4
7.780000E-8	8.821895E-4
7.790000E-8	9.489946E-4
7.800000E-8	1.010661E-3
7.810000E-8	1.062049E-3
7.820000E-8	1.044920E-3
7.830000E-8	1.051772E-3
7.840000E-8	1.123715E-3
7.850000E-8	1.185382E-3
7.860000E-8	1.142558E-3
7.870000E-8	1.050059E-3
7.880000E-8	8.410787E-4
7.890000E-8	5.927010E-4
7.900000E-8	3.785822E-4
7.910000E-8	3.357585E-4
7.920000E-8	4.436743E-4
7.930000E-8	7.040427E-4
7.940000E-8	9.935313E-4
7.950000E-8	1.151123E-3
7.960000E-8	1.193946E-3
7.970000E-8	1.099734E-3
7.980000E-8	9.575593E-4
7.990000E-8	8.582082E-4
8.000000E-8	7.725607E-4
8.010000E-8	7.228852E-4
8.020000E-8	7.417276E-4
8.030000E-8	7.794125E-4
8.040000E-8	8.770507E-4
8.050000E-8	9.849665E-4
8.060000E-8	9.832536E-4
8.070000E-8	9.883924E-4
8.080000E-8	9.301521E-4
8.090000E-8	8.376528E-4
8.100000E-8	7.999679E-4
8.110000E-8	8.839025E-4
8.120000E-8	1.034642E-3
8.130000E-8	1.152836E-3
8.140000E-8	1.183669E-3
8.150000E-8	1.044920E-3
8.160000E-8	8.736248E-4
8.170000E-8	7.468665E-4
8.180000E-8	7.383017E-4
8.190000E-8	8.085327E-4
8.200000E-8	9.832536E-4
8.210000E-8	1.147697E-3
8.220000E-8	1.233344E-3
8.230000E-8	1.233344E-3
8.240000E-8	1.171678E-3
8.250000E-8	1.140845E-3
8.260000E-8	1.152836E-3
8.270000E-8	1.183669E-3
8.280000E-8	1.209363E-3
8.290000E-8	1.205937E-3
8.300000E-8	1.188808E-3
8.310000E-8	1.110012E-3
8.320000E-8	1.000383E-3
8.330000E-8	8.325140E-4
8.340000E-8	7.451535E-4
8.350000E-8	6.406636E-4
8.360000E-8	5.909880E-4
8.370000E-8	5.875621E-4
8.380000E-8	6.166823E-4
8.390000E-8	6.629319E-4
8.400000E-8	7.365888E-4
8.410000E-8	7.948291E-4
8.420000E-8	8.958931E-4
8.430000E-8	9.644111E-4
8.440000E-8	1.055197E-3
8.450000E-8	1.209363E-3
8.460000E-8	1.344686E-3
8.470000E-8	1.428621E-3
8.480000E-8	1.342973E-3
8.490000E-8	1.151123E-3
8.500000E-8	8.513564E-4
8.510000E-8	5.413125E-4
8.520000E-8	3.477491E-4
8.530000E-8	3.066383E-4
8.540000E-8	4.145542E-4
8.550000E-8	6.577931E-4
8.560000E-8	8.804766E-4
8.570000E-8	1.020938E-3
8.580000E-8	9.866795E-4
8.590000E-8	9.181615E-4
8.600000E-8	8.907543E-4
8.610000E-8	9.678370E-4
8.620000E-8	1.163113E-3
8.630000E-8	1.421769E-3
8.640000E-8	1.586212E-3
8.650000E-8	1.598203E-3
8.660000E-8	1.385797E-3
8.670000E-8	1.116864E-3
8.680000E-8	9.233003E-4
8.690000E-8	8.462176E-4
8.700000E-8	9.455687E-4
8.710000E-8	1.157974E-3
8.720000E-8	1.327557E-3
8.730000E-8	1.406352E-3
8.740000E-8	1.378945E-3
8.750000E-8	1.289872E-3
8.760000E-8	1.120290E-3
8.770000E-8	9.507075E-4
8.780000E-8	7.999679E-4
8.790000E-8	6.526542E-4
8.800000E-8	5.515902E-4
8.810000E-8	5.036276E-4
8.820000E-8	5.652938E-4
8.830000E-8	7.160334E-4
8.840000E-8	9.044579E-4
8.850000E-8	9.695500E-4
8.860000E-8	9.558464E-4
8.870000E-8	8.976061E-4
8.880000E-8	8.325140E-4
8.890000E-8	8.119586E-4
8.900000E-8	8.462176E-4
8.910000E-8	9.609852E-4
8.920000E-8	1.048346E-3
8.930000E-8	1.118577E-3
8.940000E-8	1.094595E-3
8.950000E-8	1.017513E-3
8.960000E-8	1.000383E-3
8.970000E-8	1.067188E-3
8.980000E-8	1.205937E-3
8.990000E-8	1.366954E-3
9.000000E-8	1.527972E-3
9.010000E-8	1.659869E-3
9.020000E-8	1.617045E-3
9.030000E-8	1.461167E-3
9.040000E-8	1.190521E-3
9.050000E-8	9.061708E-4
9.060000E-8	5.789974E-4
9.070000E-8	3.665916E-4
9.080000E-8	2.963606E-4
9.090000E-8	4.196930E-4
9.100000E-8	6.098305E-4
9.110000E-8	8.496435E-4
9.120000E-8	1.036355E-3
9.130000E-8	1.181956E-3
9.140000E-8	1.224780E-3
9.150000E-8	1.161400E-3
9.160000E-8	1.036355E-3
9.170000E-8	1.015800E-3
9.180000E-8	1.019226E-3
9.190000E-8	1.123715E-3
9.200000E-8	1.245335E-3
9.210000E-8	1.358390E-3
9.220000E-8	1.337834E-3
9.230000E-8	1.240196E-3
9.240000E-8	1.060336E-3
9.250000E-8	8.993190E-4
9.260000E-8	8.051068E-4
9.270000E-8	7.571442E-4
9.280000E-8	7.451535E-4
9.290000E-8	6.475154E-4
9.300000E-8	5.927010E-4
9.310000E-8	5.310348E-4
9.320000E-8	5.481643E-4
9.330000E-8	6.355247E-4
9.340000E-8	7.639960E-4
9.350000E-8	9.147356E-4
9.360000E-8	9.507075E-4
9.370000E-8	9.095967E-4
9.380000E-8	8.445046E-4
9.390000E-8	8.102456E-4
9.400000E-8	8.924672E-4
9.410000E-8	1.082605E-3
9.420000E-8	1.283020E-3
9.430000E-8	1.373806E-3
9.440000E-8	1.354964E-3
9.450000E-8	1.284733E-3
9.460000E-8	1.151123E-3
9.470000E-8	1.060336E-3
9.480000E-8	1.038068E-3
9.490000E-8	1.079179E-3
9.500000E-8	1.168252E-3
9.510000E-8	1.180243E-3
9.520000E-8	1.096308E-3
9.530000E-8	9.901054E-4
9.540000E-8	8.873284E-4
9.550000E-8	8.924672E-4
9.560000E-8	9.609852E-4
9.570000E-8	1.075753E-3
9.580000E-8	1.144271E-3
9.590000E-8	1.106586E-3
9.600000E-8	1.002096E-3
9.610000E-8	8.530694E-4
9.620000E-8	7.931161E-4
9.630000E-8	8.153845E-4
9.640000E-8	9.387169E-4
9.650000E-8	1.103160E-3
9.660000E-8	1.269316E-3
9.670000E-8	1.344686E-3
9.680000E-8	1.262464E-3
9.690000E-8	1.055197E-3
9.700000E-8	8.907543E-4
9.710000E-8	7.657089E-4
9.720000E-8	7.091816E-4
9.730000E-8	7.742737E-4
9.740000E-8	8.719118E-4
9.750000E-8	9.489946E-4
9.760000E-8	9.746888E-4
9.770000E-8	8.924672E-4
9.780000E-8	8.256622E-4
9.790000E-8	6.971909E-4
9.800000E-8	5.789974E-4
9.810000E-8	4.505261E-4
9.820000E-8	4.214060E-4
9.830000E-8	5.344607E-4
9.840000E-8	7.622830E-4
9.850000E-8	1.089456E-3
9.860000E-8	1.373806E-3
9.870000E-8	1.507416E-3
9.880000E-8	1.471444E-3
9.890000E-8	1.274455E-3
9.900000E-8	1.036355E-3
9.910000E-8	8.787636E-4
9.920000E-8	8.239492E-4
9.930000E-8	9.301521E-4
9.940000E-8	1.050059E-3
9.950000E-8	1.178530E-3
9.960000E-8	1.262464E-3
9.970000E-8	1.226493E-3
9.980000E-8	1.111725E-3
9.990000E-8	9.644111E-4
1.000000E-7	8.325140E-4
1.001000E-7	7.502924E-4
1.002000E-7	7.228852E-4
1.003000E-7	7.948291E-4
1.004000E-7	9.267262E-4
1.005000E-7	1.050059E-3
1.006000E-7	1.034642E-3
1.007000E-7	8.924672E-4
1.008000E-7	5.704326E-4
1.009000E-7	2.740923E-4
1.010000E-7	6.853827E-5
1.011000E-7	2.026445E-8
1.012000E-7	1.558987E-4
1.013000E-7	4.984887E-4
1.014000E-7	8.787636E-4
1.015000E-7	1.132280E-3
1.016000E-7	1.200798E-3
1.017000E-7	1.062049E-3
1.018000E-7	8.393658E-4
1.019000E-7	6.029787E-4
1.020000E-7	4.779333E-4
1.021000E-7	4.608038E-4
1.022000E-7	5.755715E-4
1.023000E-7	7.297370E-4
1.024000E-7	9.061708E-4
1.025000E-7	1.156262E-3
1.026000E-7	1.360103E-3
1.027000E-7	1.581073E-3
1.028000E-7	1.726674E-3
1.029000E-7	1.820886E-3
1.030000E-7	1.742090E-3
1.031000E-7	1.519407E-3
1.032000E-7	1.250474E-3
1.033000E-7	1.055197E-3
1.034000E-7	9.986701E-4
1.035000E-7	1.024364E-3
1.036000E-7	1.149410E-3
1.037000E-7	1.305288E-3
1.038000E-7	1.265890E-3
1.039000E-7	1.079179E-3
1.040000E-7	7.965420E-4
1.041000E-7	5.310348E-4
1.042000E-7	3.580268E-4
1.043000E-7	3.580268E-4
1.044000E-7	4.539520E-4
1.045000E-7	6.081175E-4
1.046000E-7	6.869132E-4
1.047000E-7	6.989039E-4
1.048000E-7	6.543672E-4
1.049000E-7	5.567290E-4
1.050000E-7	4.436743E-4
1.051000E-7	4.385355E-4
1.052000E-7	5.053405E-4
1.053000E-7	7.177463E-4
1.054000E-7	1.010661E-3
1.055000E-7	1.324131E-3
1.056000E-7	1.519407E-3
1.057000E-7	1.569083E-3
1.058000E-7	1.519407E-3
1.059000E-7	1.360103E-3
1.060000E-7	1.241909E-3
1.061000E-7	1.181956E-3
1.062000E-7	1.108299E-3
1.063000E-7	1.063762E-3
1.064000E-7	9.541334E-4
1.065000E-7	7.828384E-4
1.066000E-7	6.218211E-4
1.067000E-7	5.515902E-4
1.068000E-7	5.772844E-4
1.069000E-7	7.108945E-4
1.070000E-7	9.078838E-4
1.071000E-7	1.094595E-3
1.072000E-7	1.181956E-3
1.073000E-7	1.176817E-3
1.074000E-7	1.108299E-3
1.075000E-7	1.079179E-3
1.076000E-7	1.133993E-3
1.077000E-7	1.219641E-3
1.078000E-7	1.397788E-3
1.079000E-7	1.539962E-3
1.080000E-7	1.658156E-3
1.081000E-7	1.668434E-3
1.082000E-7	1.606767E-3
1.083000E-7	1.505703E-3
1.084000E-7	1.420056E-3
1.085000E-7	1.358390E-3
1.086000E-7	1.291585E-3
1.087000E-7	1.168252E-3
1.088000E-7	1.055197E-3
1.089000E-7	8.821895E-4
1.090000E-7	8.033938E-4
1.091000E-7	8.445046E-4
1.092000E-7	9.764018E-4
1.093000E-7	1.115151E-3
1.094000E-7	1.205937E-3
1.095000E-7	1.145984E-3
1.096000E-7	9.626982E-4
1.097000E-7	7.571442E-4
1.098000E-7	6.166823E-4
1.099000E-7	6.440895E-4
1.100000E-7	7.759866E-4
1.101000E-7	9.147356E-4
1.102000E-7	1.000383E-3
1.103000E-7	1.050059E-3
1.104000E-7	1.055197E-3
1.105000E-7	1.092882E-3
1.106000E-7	1.166539E-3
1.107000E-7	1.255613E-3
1.108000E-7	1.277881E-3
1.109000E-7	1.245335E-3
1.110000E-7	1.169965E-3
1.111000E-7	1.077466E-3
1.112000E-7	9.866795E-4
1.113000E-7	9.010320E-4
1.114000E-7	8.325140E-4
1.115000E-7	7.982550E-4
1.116000E-7	7.845514E-4
1.117000E-7	8.684859E-4
1.118000E-7	9.318651E-4
1.119000E-7	1.014087E-3
1.120000E-7	1.082605E-3
1.121000E-7	1.091169E-3
1.122000E-7	1.086031E-3
1.123000E-7	1.161400E-3
1.124000E-7	1.226493E-3
1.125000E-7	1.277881E-3
1.126000E-7	1.228205E-3
1.127000E-7	1.068901E-3
1.128000E-7	8.170974E-4
1.129000E-7	6.064046E-4
1.130000E-7	4.727945E-4
1.131000E-7	4.745074E-4
1.132000E-7	6.166823E-4
1.133000E-7	8.136715E-4
1.134000E-7	9.592723E-4
1.135000E-7	1.029503E-3
1.136000E-7	1.015800E-3
1.137000E-7	9.387169E-4
1.138000E-7	8.342269E-4
1.139000E-7	7.263111E-4
1.140000E-7	7.725607E-4
1.141000E-7	9.044579E-4
1.142000E-7	1.079179E-3
1.143000E-7	1.259039E-3
1.144000E-7	1.397788E-3
1.145000E-7	1.500565E-3
1.146000E-7	1.562231E-3
1.147000E-7	1.569083E-3
1.148000E-7	1.567370E-3
1.149000E-7	1.512555E-3
1.150000E-7	1.397788E-3
1.151000E-7	1.238483E-3
1.152000E-7	1.056910E-3
1.153000E-7	8.993190E-4
1.154000E-7	8.273751E-4
1.155000E-7	8.701989E-4
1.156000E-7	1.000383E-3
1.157000E-7	1.135706E-3
1.158000E-7	1.187095E-3
1.159000E-7	1.185382E-3
1.160000E-7	1.060336E-3
1.161000E-7	8.993190E-4
1.162000E-7	7.708478E-4
1.163000E-7	6.852003E-4
1.164000E-7	6.526542E-4
1.165000E-7	7.194593E-4
1.166000E-7	7.828384E-4
1.167000E-7	8.136715E-4
1.168000E-7	8.393658E-4
1.169000E-7	8.924672E-4
1.170000E-7	9.421428E-4
1.171000E-7	9.626982E-4
1.172000E-7	9.815406E-4
1.173000E-7	9.626982E-4
1.174000E-7	9.472816E-4
1.175000E-7	9.267262E-4
1.176000E-7	9.233003E-4
1.177000E-7	9.164485E-4
1.178000E-7	8.924672E-4
1.179000E-7	9.044579E-4
1.180000E-7	9.524205E-4
1.181000E-7	1.020938E-3
1.182000E-7	1.048346E-3
1.183000E-7	1.123715E-3
1.184000E-7	1.181956E-3
1.185000E-7	1.211076E-3
1.186000E-7	1.197372E-3
1.187000E-7	1.154549E-3
1.188000E-7	1.002096E-3
1.189000E-7	7.931161E-4
1.190000E-7	5.447384E-4
1.191000E-7	3.854340E-4
1.192000E-7	3.580268E-4
1.193000E-7	4.659427E-4
1.194000E-7	6.989039E-4
1.195000E-7	9.335780E-4
1.196000E-7	1.115151E-3
1.197000E-7	1.176817E-3
1.198000E-7	1.171678E-3
1.199000E-7	1.166539E-3
1.200000E-7	1.205937E-3
1.201000E-7	1.250474E-3
1.202000E-7	1.269316E-3
1.203000E-7	1.192234E-3
1.204000E-7	1.036355E-3
1.205000E-7	8.719118E-4
1.206000E-7	7.674219E-4
1.207000E-7	7.982550E-4
1.208000E-7	9.764018E-4
1.209000E-7	1.188808E-3
1.210000E-7	1.370380E-3
1.211000E-7	1.420056E-3
1.212000E-7	1.329270E-3
1.213000E-7	1.123715E-3
1.214000E-7	8.770507E-4
1.215000E-7	6.800614E-4
1.216000E-7	6.440895E-4
1.217000E-7	7.365888E-4
1.218000E-7	8.736248E-4
1.219000E-7	1.074040E-3
1.220000E-7	1.211076E-3
1.221000E-7	1.286446E-3
1.222000E-7	1.265890E-3
1.223000E-7	1.169965E-3
1.224000E-7	1.099734E-3
1.225000E-7	1.092882E-3
1.226000E-7	1.229918E-3
1.227000E-7	1.382371E-3
1.228000E-7	1.473157E-3
1.229000E-7	1.457741E-3
1.230000E-7	1.289872E-3
1.231000E-7	1.082605E-3
1.232000E-7	8.564953E-4
1.233000E-7	7.605701E-4
1.234000E-7	7.365888E-4
1.235000E-7	7.468665E-4
1.236000E-7	7.605701E-4
1.237000E-7	7.537183E-4
1.238000E-7	7.776996E-4
1.239000E-7	8.821895E-4
1.240000E-7	9.952442E-4
1.241000E-7	1.084318E-3
1.242000E-7	1.166539E-3
1.243000E-7	1.183669E-3
1.244000E-7	1.149410E-3
1.245000E-7	1.103160E-3
1.246000E-7	1.068901E-3
1.247000E-7	1.036355E-3
1.248000E-7	9.233003E-4
1.249000E-7	8.359399E-4
1.250000E-7	7.554312E-4
1.251000E-7	7.502924E-4
1.252000E-7	8.153845E-4
1.253000E-7	9.472816E-4
1.254000E-7	1.092882E-3
1.255000E-7	1.149410E-3
1.256000E-7	1.123715E-3
1.257000E-7	1.032929E-3
1.258000E-7	8.633471E-4
1.259000E-7	7.468665E-4
1.260000E-7	7.091816E-4
1.261000E-7	7.759866E-4
1.262000E-7	9.472816E-4
1.263000E-7	1.110012E-3
1.264000E-7	1.207650E-3
1.265000E-7	1.214502E-3
1.266000E-7	1.145984E-3
1.267000E-7	1.074040E-3
1.268000E-7	9.918183E-4
1.269000E-7	9.764018E-4
1.270000E-7	9.935313E-4
1.271000E-7	1.053485E-3
1.272000E-7	1.123715E-3
1.273000E-7	1.235057E-3
1.274000E-7	1.387510E-3
1.275000E-7	1.551953E-3
1.276000E-7	1.688989E-3
1.277000E-7	1.707831E-3
1.278000E-7	1.584499E-3
1.279000E-7	1.286446E-3
1.280000E-7	8.787636E-4
1.281000E-7	5.515902E-4
1.282000E-7	3.905729E-4
1.283000E-7	4.265448E-4
1.284000E-7	6.286729E-4
1.285000E-7	9.250133E-4
1.286000E-7	1.157974E-3
1.287000E-7	1.264177E-3
1.288000E-7	1.308714E-3
1.289000E-7	1.255613E-3
1.290000E-7	1.161400E-3
1.291000E-7	1.036355E-3
1.292000E-7	8.787636E-4
1.293000E-7	7.365888E-4
1.294000E-7	6.098305E-4
1.295000E-7	5.310348E-4
1.296000E-7	5.276089E-4
1.297000E-7	6.183952E-4
1.298000E-7	7.914032E-4
1.299000E-7	1.007235E-3
1.300000E-7	1.168252E-3
1.301000E-7	1.183669E-3
1.302000E-7	1.079179E-3
1.303000E-7	9.318651E-4
1.304000E-7	7.588571E-4
1.305000E-7	6.389506E-4
1.306000E-7	6.183952E-4
1.307000E-7	6.646449E-4
1.308000E-7	7.314499E-4
1.309000E-7	7.468665E-4
1.310000E-7	7.160334E-4
1.311000E-7	6.612190E-4
1.312000E-7	6.766355E-4
1.313000E-7	7.811255E-4
1.314000E-7	9.815406E-4
1.315000E-7	1.248761E-3
1.316000E-7	1.392649E-3
1.317000E-7	1.385797E-3
1.318000E-7	1.259039E-3
1.319000E-7	1.074040E-3
1.320000E-7	8.941802E-4
1.321000E-7	7.657089E-4
1.322000E-7	6.886262E-4
1.323000E-7	6.595060E-4
1.324000E-7	6.338118E-4
1.325000E-7	6.201082E-4
1.326000E-7	6.440895E-4
1.327000E-7	7.365888E-4
1.328000E-7	8.410787E-4
1.329000E-7	9.507075E-4
1.330000E-7	1.056910E-3
1.331000E-7	1.156262E-3
1.332000E-7	1.243622E-3
1.333000E-7	1.305288E-3
1.334000E-7	1.354964E-3
1.335000E-7	1.337834E-3
1.336000E-7	1.274455E-3
1.337000E-7	1.207650E-3
1.338000E-7	1.135706E-3
1.339000E-7	1.089456E-3
1.340000E-7	1.084318E-3
1.341000E-7	1.070614E-3
1.342000E-7	1.050059E-3
1.343000E-7	9.832536E-4
1.344000E-7	9.729759E-4
1.345000E-7	9.404298E-4
1.346000E-7	9.335780E-4
1.347000E-7	9.215874E-4
1.348000E-7	9.061708E-4
1.349000E-7	8.633471E-4
1.350000E-7	8.153845E-4
1.351000E-7	8.376528E-4
1.352000E-7	9.061708E-4
1.353000E-7	1.002096E-3
1.354000E-7	1.068901E-3
1.355000E-7	1.046633E-3
1.356000E-7	9.558464E-4
1.357000E-7	9.044579E-4
1.358000E-7	8.839025E-4
1.359000E-7	9.644111E-4
1.360000E-7	1.113438E-3
1.361000E-7	1.336121E-3
1.362000E-7	1.531398E-3
1.363000E-7	1.651304E-3
1.364000E-7	1.620471E-3
1.365000E-7	1.509129E-3
1.366000E-7	1.361816E-3
1.367000E-7	1.289872E-3
1.368000E-7	1.235057E-3
1.369000E-7	1.236770E-3
1.370000E-7	1.228205E-3
1.371000E-7	1.145984E-3
1.372000E-7	9.541334E-4
1.373000E-7	7.160334E-4
1.374000E-7	5.704326E-4
1.375000E-7	5.841362E-4
1.376000E-7	6.852003E-4
1.377000E-7	9.044579E-4
1.378000E-7	1.127141E-3
1.379000E-7	1.259039E-3
1.380000E-7	1.219641E-3
1.381000E-7	1.043207E-3
1.382000E-7	7.794125E-4
1.383000E-7	5.738585E-4
1.384000E-7	5.293218E-4
1.385000E-7	6.132564E-4
1.386000E-7	8.239492E-4
1.387000E-7	1.060336E-3
1.388000E-7	1.205937E-3
1.389000E-7	1.272742E-3
1.390000E-7	1.272742E-3
1.391000E-7	1.248761E-3
1.392000E-7	1.199085E-3
1.393000E-7	1.180243E-3
1.394000E-7	1.169965E-3
1.395000E-7	1.190521E-3
1.396000E-7	1.224780E-3
1.397000E-7	1.216215E-3
1.398000E-7	1.224780E-3
1.399000E-7	1.229918E-3
1.400000E-7	1.228205E-3
1.401000E-7	1.233344E-3
1.402000E-7	1.238483E-3
1.403000E-7	1.240196E-3
1.404000E-7	1.197372E-3
1.405000E-7	1.050059E-3
1.406000E-7	8.787636E-4
1.407000E-7	7.023298E-4
1.408000E-7	5.944139E-4
1.409000E-7	5.378866E-4
1.410000E-7	5.601549E-4
1.411000E-7	6.235341E-4
1.412000E-7	6.526542E-4
1.413000E-7	6.029787E-4
1.414000E-7	4.333966E-4
1.415000E-7	3.049254E-4
1.416000E-7	2.346944E-4
1.417000E-7	2.912218E-4
1.418000E-7	4.813592E-4
1.419000E-7	7.194593E-4
1.420000E-7	9.318651E-4
1.421000E-7	1.002096E-3
1.422000E-7	8.530694E-4
1.423000E-7	6.149693E-4
1.424000E-7	4.025635E-4
1.425000E-7	3.580268E-4
1.426000E-7	4.813592E-4
1.427000E-7	7.160334E-4
1.428000E-7	9.832536E-4
1.429000E-7	1.202511E-3
1.430000E-7	1.289872E-3
1.431000E-7	1.351538E-3
1.432000E-7	1.346399E-3
1.433000E-7	1.399500E-3
1.434000E-7	1.462880E-3
1.435000E-7	1.593064E-3
1.436000E-7	1.683850E-3
1.437000E-7	1.709544E-3
1.438000E-7	1.644452E-3
1.439000E-7	1.483435E-3
1.440000E-7	1.245335E-3
1.441000E-7	1.005522E-3
1.442000E-7	8.239492E-4
1.443000E-7	7.708478E-4
1.444000E-7	8.907543E-4
1.445000E-7	1.034642E-3
1.446000E-7	1.247048E-3
1.447000E-7	1.337834E-3
1.448000E-7	1.286446E-3
1.449000E-7	1.183669E-3
1.450000E-7	1.099734E-3
1.451000E-7	1.137419E-3
1.452000E-7	1.274455E-3
1.453000E-7	1.480009E-3
1.454000E-7	1.688989E-3
1.455000E-7	1.791766E-3
1.456000E-7	1.750655E-3
1.457000E-7	1.582786E-3
1.458000E-7	1.348112E-3
1.459000E-7	1.156262E-3
1.460000E-7	1.015800E-3
1.461000E-7	9.952442E-4
1.462000E-7	1.094595E-3
1.463000E-7	1.204224E-3
1.464000E-7	1.233344E-3
1.465000E-7	1.190521E-3
1.466000E-7	1.101447E-3
1.467000E-7	9.866795E-4
1.468000E-7	8.976061E-4
1.469000E-7	9.489946E-4
1.470000E-7	1.089456E-3
1.471000E-7	1.236770E-3
1.472000E-7	1.291585E-3
1.473000E-7	1.238483E-3
1.474000E-7	1.050059E-3
1.475000E-7	7.794125E-4
1.476000E-7	5.310348E-4
1.477000E-7	3.785822E-4
1.478000E-7	3.563139E-4
1.479000E-7	4.402484E-4
1.480000E-7	5.481643E-4
1.481000E-7	6.081175E-4
1.482000E-7	6.149693E-4
1.483000E-7	6.149693E-4
1.484000E-7	6.389506E-4
1.485000E-7	7.537183E-4
1.486000E-7	8.513564E-4
1.487000E-7	9.284392E-4
1.488000E-7	9.130226E-4
1.489000E-7	7.828384E-4
1.490000E-7	6.543672E-4
1.491000E-7	5.875621E-4
1.492000E-7	6.303859E-4
1.493000E-7	6.971909E-4
1.494000E-7	7.571442E-4
1.495000E-7	7.468665E-4
1.496000E-7	6.766355E-4
1.497000E-7	6.235341E-4
1.498000E-7	6.201082E-4
1.499000E-7	6.903391E-4
1.500000E-7	8.153845E-4
1.501000E-7	9.712629E-4
1.502000E-7	1.099734E-3
1.503000E-7	1.197372E-3
1.504000E-7	1.216215E-3
1.505000E-7	1.140845E-3
1.506000E-7	9.901054E-4
1.507000E-7	8.119586E-4
1.508000E-7	6.458024E-4
1.509000E-7	5.584420E-4
1.510000E-7	6.252470E-4
1.511000E-7	8.102456E-4
1.512000E-7	1.096308E-3
1.513000E-7	1.325844E-3
1.514000E-7	1.502277E-3
1.515000E-7	1.562231E-3
1.516000E-7	1.545101E-3
1.517000E-7	1.416630E-3
1.518000E-7	1.260752E-3
1.519000E-7	1.123715E-3
1.520000E-7	1.079179E-3
1.521000E-7	1.115151E-3
1.522000E-7	1.169965E-3
1.523000E-7	1.190521E-3
1.524000E-7	1.188808E-3
1.525000E-7	1.072327E-3
1.526000E-7	8.890413E-4
1.527000E-7	7.263111E-4
1.528000E-7	6.886262E-4
1.529000E-7	7.879773E-4
1.530000E-7	9.558464E-4
1.531000E-7	1.164826E-3
1.532000E-7	1.358390E-3
1.533000E-7	1.433759E-3
1.534000E-7	1.380658E-3
1.535000E-7	1.247048E-3
1.536000E-7	1.058623E-3
1.537000E-7	9.335780E-4
1.538000E-7	8.976061E-4
1.539000E-7	8.976061E-4
1.540000E-7	8.941802E-4
1.541000E-7	8.839025E-4
1.542000E-7	8.445046E-4
1.543000E-7	8.530694E-4
1.544000E-7	9.609852E-4
1.545000E-7	1.022651E-3
1.546000E-7	1.084318E-3
1.547000E-7	1.106586E-3
1.548000E-7	1.101447E-3
1.549000E-7	1.144271E-3
1.550000E-7	1.207650E-3
1.551000E-7	1.259039E-3
1.552000E-7	1.277881E-3
1.553000E-7	1.159687E-3
1.554000E-7	9.250133E-4
1.555000E-7	6.132564E-4
1.556000E-7	3.802952E-4
1.557000E-7	2.792311E-4
1.558000E-7	3.357585E-4
1.559000E-7	5.824233E-4
1.560000E-7	8.821895E-4
1.561000E-7	1.139132E-3
1.562000E-7	1.185382E-3
1.563000E-7	1.091169E-3
1.564000E-7	8.496435E-4
1.565000E-7	5.601549E-4
1.566000E-7	3.460362E-4
1.567000E-7	3.220549E-4
1.568000E-7	4.419614E-4
1.569000E-7	6.920521E-4
1.570000E-7	9.935313E-4
1.571000E-7	1.245335E-3
1.572000E-7	1.365241E-3
1.573000E-7	1.322418E-3
1.574000E-7	1.163113E-3
1.575000E-7	9.798277E-4
1.576000E-7	8.342269E-4
1.577000E-7	6.612190E-4
1.578000E-7	5.618679E-4
1.579000E-7	5.395995E-4
1.580000E-7	5.892751E-4
1.581000E-7	6.954780E-4
1.582000E-7	8.530694E-4
1.583000E-7	1.008948E-3
1.584000E-7	1.096308E-3
1.585000E-7	1.181956E-3
1.586000E-7	1.188808E-3
1.587000E-7	1.092882E-3
1.588000E-7	9.592723E-4
1.589000E-7	8.188104E-4
1.590000E-7	7.451535E-4
1.591000E-7	7.537183E-4
1.592000E-7	8.787636E-4
1.593000E-7	9.592723E-4
1.594000E-7	9.729759E-4
1.595000E-7	9.541334E-4
1.596000E-7	9.198744E-4
1.597000E-7	9.027449E-4
1.598000E-7	8.821895E-4
1.599000E-7	8.873284E-4
1.600000E-7	9.404298E-4
1.601000E-7	9.866795E-4
1.602000E-7	1.068901E-3
1.603000E-7	1.154549E-3
1.604000E-7	1.188808E-3
1.605000E-7	1.255613E-3
1.606000E-7	1.283020E-3
1.607000E-7	1.303575E-3
1.608000E-7	1.235057E-3
1.609000E-7	1.111725E-3
1.610000E-7	9.558464E-4
1.611000E-7	7.639960E-4
1.612000E-7	5.944139E-4
1.613000E-7	4.368225E-4
1.614000E-7	3.871470E-4
1.615000E-7	4.042765E-4
1.616000E-7	4.710815E-4
1.617000E-7	5.139053E-4
1.618000E-7	5.601549E-4
1.619000E-7	5.961269E-4
1.620000E-7	6.406636E-4
1.621000E-7	6.646449E-4
1.622000E-7	7.451535E-4
1.623000E-7	7.931161E-4
1.624000E-7	8.890413E-4
1.625000E-7	9.969572E-4
1.626000E-7	1.103160E-3
1.627000E-7	1.181956E-3
1.628000E-7	1.221354E-3
1.629000E-7	1.147697E-3
1.630000E-7	1.080892E-3
1.631000E-7	1.002096E-3
1.632000E-7	9.986701E-4
1.633000E-7	1.072327E-3
1.634000E-7	1.190521E-3
1.635000E-7	1.330982E-3
1.636000E-7	1.500565E-3
1.637000E-7	1.577647E-3
1.638000E-7	1.531398E-3
1.639000E-7	1.332695E-3
1.640000E-7	1.070614E-3
1.641000E-7	7.725607E-4
1.642000E-7	5.755715E-4
1.643000E-7	5.395995E-4
1.644000E-7	6.783485E-4
1.645000E-7	9.472816E-4
1.646000E-7	1.229918E-3
1.647000E-7	1.485148E-3
1.648000E-7	1.606767E-3
1.649000E-7	1.606767E-3
1.650000E-7	1.449176E-3
1.651000E-7	1.307001E-3
1.652000E-7	1.192234E-3
1.653000E-7	1.137419E-3
1.654000E-7	1.132280E-3
1.655000E-7	1.192234E-3
1.656000E-7	1.283020E-3
1.657000E-7	1.416630E-3
1.658000E-7	1.505703E-3
1.659000E-7	1.531398E-3
1.660000E-7	1.396075E-3
1.661000E-7	1.152836E-3
1.662000E-7	8.513564E-4
1.663000E-7	5.721456E-4
1.664000E-7	4.094153E-4
1.665000E-7	3.939988E-4
1.666000E-7	5.652938E-4
1.667000E-7	8.376528E-4
1.668000E-7	1.089456E-3
1.669000E-7	1.200798E-3
1.670000E-7	1.233344E-3
1.671000E-7	1.216215E-3
1.672000E-7	1.192234E-3
1.673000E-7	1.164826E-3
1.674000E-7	1.104873E-3
1.675000E-7	1.027790E-3
1.676000E-7	9.044579E-4
1.677000E-7	7.331629E-4
1.678000E-7	6.149693E-4
1.679000E-7	6.286729E-4
1.680000E-7	7.383017E-4
1.681000E-7	9.113097E-4
1.682000E-7	1.044920E-3
1.683000E-7	1.116864E-3
1.684000E-7	1.098021E-3
1.685000E-7	9.541334E-4
1.686000E-7	7.194593E-4
1.687000E-7	5.430254E-4
1.688000E-7	5.258959E-4
1.689000E-7	5.995528E-4
1.690000E-7	7.982550E-4
1.691000E-7	9.712629E-4
1.692000E-7	1.108299E-3
1.693000E-7	1.202511E-3
1.694000E-7	1.224780E-3
1.695000E-7	1.236770E-3
1.696000E-7	1.247048E-3
1.697000E-7	1.248761E-3
1.698000E-7	1.255613E-3
1.699000E-7	1.260752E-3
1.700000E-7	1.267603E-3
1.701000E-7	1.209363E-3
1.702000E-7	1.110012E-3
1.703000E-7	9.849665E-4
1.704000E-7	9.113097E-4
1.705000E-7	9.729759E-4
1.706000E-7	1.175104E-3
1.707000E-7	1.384084E-3
1.708000E-7	1.534824E-3
1.709000E-7	1.521120E-3
1.710000E-7	1.325844E-3
1.711000E-7	1.043207E-3
1.712000E-7	7.965420E-4
1.713000E-7	6.783485E-4
1.714000E-7	7.331629E-4
1.715000E-7	9.421428E-4
1.716000E-7	1.125428E-3
1.717000E-7	1.212789E-3
1.718000E-7	1.181956E-3
1.719000E-7	1.053485E-3
1.720000E-7	8.342269E-4
1.721000E-7	6.423765E-4
1.722000E-7	5.481643E-4
1.723000E-7	5.875621E-4
1.724000E-7	6.869132E-4
1.725000E-7	8.479305E-4
1.726000E-7	1.058623E-3
1.727000E-7	1.224780E-3
1.728000E-7	1.296723E-3
1.729000E-7	1.353251E-3
1.730000E-7	1.334408E-3
1.731000E-7	1.307001E-3
1.732000E-7	1.243622E-3
1.733000E-7	1.137419E-3
1.734000E-7	1.008948E-3
1.735000E-7	8.993190E-4
1.736000E-7	8.325140E-4
1.737000E-7	7.879773E-4
1.738000E-7	7.776996E-4
1.739000E-7	7.520053E-4
1.740000E-7	6.714967E-4
1.741000E-7	5.258959E-4
1.742000E-7	4.608038E-4
1.743000E-7	4.196930E-4
1.744000E-7	4.608038E-4
1.745000E-7	5.909880E-4
1.746000E-7	7.811255E-4
1.747000E-7	9.661241E-4
1.748000E-7	1.051772E-3
1.749000E-7	1.082605E-3
1.750000E-7	1.026077E-3
1.751000E-7	9.198744E-4
1.752000E-7	7.434406E-4
1.753000E-7	5.909880E-4
1.754000E-7	4.625168E-4
1.755000E-7	4.813592E-4
1.756000E-7	5.909880E-4
1.757000E-7	7.794125E-4
1.758000E-7	9.969572E-4
1.759000E-7	1.156262E-3
1.760000E-7	1.219641E-3
1.761000E-7	1.142558E-3
1.762000E-7	9.712629E-4
1.763000E-7	7.674219E-4
1.764000E-7	5.978398E-4
1.765000E-7	5.190441E-4
1.766000E-7	6.029787E-4
1.767000E-7	6.954780E-4
1.768000E-7	7.605701E-4
1.769000E-7	7.537183E-4
1.770000E-7	6.834873E-4
1.771000E-7	6.475154E-4
1.772000E-7	6.389506E-4
1.773000E-7	7.468665E-4
1.774000E-7	9.147356E-4
1.775000E-7	1.065475E-3
1.776000E-7	1.115151E-3
1.777000E-7	1.125428E-3
1.778000E-7	1.050059E-3
1.779000E-7	9.781147E-4
1.780000E-7	9.575593E-4
1.781000E-7	9.901054E-4
1.782000E-7	1.116864E-3
1.783000E-7	1.226493E-3
1.784000E-7	1.293298E-3
1.785000E-7	1.272742E-3
1.786000E-7	1.190521E-3
1.787000E-7	9.969572E-4
1.788000E-7	7.708478E-4
1.789000E-7	6.115434E-4
1.790000E-7	5.087664E-4
1.791000E-7	4.796463E-4
1.792000E-7	4.916369E-4
1.793000E-7	5.515902E-4
1.794000E-7	6.355247E-4
1.795000E-7	6.869132E-4
1.796000E-7	7.708478E-4
1.797000E-7	7.845514E-4
1.798000E-7	8.616341E-4
1.799000E-7	9.301521E-4
1.800000E-7	1.032929E-3
1.801000E-7	1.154549E-3
1.802000E-7	1.185382E-3
1.803000E-7	1.132280E-3
1.804000E-7	1.010661E-3
1.805000E-7	8.479305E-4
1.806000E-7	7.177463E-4
1.807000E-7	6.766355E-4
1.808000E-7	7.177463E-4
1.809000E-7	8.153845E-4
1.810000E-7	9.489946E-4
1.811000E-7	1.031216E-3
1.812000E-7	1.038068E-3
1.813000E-7	9.986701E-4
1.814000E-7	9.678370E-4
1.815000E-7	9.507075E-4
1.816000E-7	9.507075E-4
1.817000E-7	9.575593E-4
1.818000E-7	9.901054E-4
1.819000E-7	1.022651E-3
1.820000E-7	1.074040E-3
1.821000E-7	1.050059E-3
1.822000E-7	1.007235E-3
1.823000E-7	9.181615E-4
1.824000E-7	8.085327E-4
1.825000E-7	7.314499E-4
1.826000E-7	6.629319E-4
1.827000E-7	6.783485E-4
1.828000E-7	7.108945E-4
1.829000E-7	7.554312E-4
1.830000E-7	7.657089E-4
1.831000E-7	7.622830E-4
1.832000E-7	7.588571E-4
1.833000E-7	7.263111E-4
1.834000E-7	7.245981E-4
1.835000E-7	7.297370E-4
1.836000E-7	7.348758E-4
1.837000E-7	7.776996E-4
1.838000E-7	8.650600E-4
1.839000E-7	9.883924E-4
1.840000E-7	1.115151E-3
1.841000E-7	1.183669E-3
1.842000E-7	1.197372E-3
1.843000E-7	1.137419E-3
1.844000E-7	1.032929E-3
1.845000E-7	9.044579E-4
1.846000E-7	8.582082E-4
1.847000E-7	8.719118E-4
1.848000E-7	9.267262E-4
1.849000E-7	1.002096E-3
1.850000E-7	1.000383E-3
1.851000E-7	1.008948E-3
1.852000E-7	9.798277E-4
1.853000E-7	9.421428E-4
1.854000E-7	9.095967E-4
1.855000E-7	9.181615E-4
1.856000E-7	9.883924E-4
1.857000E-7	1.060336E-3
1.858000E-7	1.128854E-3
1.859000E-7	1.154549E-3
1.860000E-7	1.111725E-3
1.861000E-7	1.014087E-3
1.862000E-7	8.873284E-4
1.863000E-7	7.896902E-4
1.864000E-7	8.239492E-4
1.865000E-7	9.969572E-4
1.866000E-7	1.209363E-3
1.867000E-7	1.370380E-3
1.868000E-7	1.414917E-3
1.869000E-7	1.372093E-3
1.870000E-7	1.216215E-3
1.871000E-7	1.079179E-3
1.872000E-7	1.010661E-3
1.873000E-7	1.026077E-3
1.874000E-7	1.056910E-3
1.875000E-7	1.026077E-3
1.876000E-7	1.003809E-3
1.877000E-7	9.387169E-4
1.878000E-7	8.993190E-4
1.879000E-7	8.599212E-4
1.880000E-7	8.085327E-4
1.881000E-7	7.537183E-4
1.882000E-7	6.937650E-4
1.883000E-7	6.920521E-4
1.884000E-7	7.040427E-4
1.885000E-7	7.879773E-4
1.886000E-7	9.267262E-4
1.887000E-7	1.043207E-3
1.888000E-7	1.166539E-3
1.889000E-7	1.178530E-3
1.890000E-7	1.094595E-3
1.891000E-7	9.284392E-4
1.892000E-7	7.691348E-4
1.893000E-7	5.824233E-4
1.894000E-7	5.361736E-4
1.895000E-7	6.355247E-4
1.896000E-7	8.359399E-4
1.897000E-7	1.044920E-3
1.898000E-7	1.178530E-3
1.899000E-7	1.204224E-3
1.900000E-7	1.111725E-3
1.901000E-7	9.387169E-4
1.902000E-7	8.085327E-4
1.903000E-7	8.205233E-4
1.904000E-7	9.318651E-4
1.905000E-7	1.050059E-3
1.906000E-7	1.087744E-3
1.907000E-7	1.039781E-3
1.908000E-7	9.489946E-4
1.909000E-7	9.318651E-4
1.910000E-7	9.832536E-4
1.911000E-7	1.074040E-3
1.912000E-7	1.175104E-3
1.913000E-7	1.193946E-3
1.914000E-7	1.132280E-3
1.915000E-7	1.070614E-3
1.916000E-7	1.072327E-3
1.917000E-7	1.147697E-3
1.918000E-7	1.283020E-3
1.919000E-7	1.473157E-3
1.920000E-7	1.529685E-3
1.921000E-7	1.409778E-3
1.922000E-7	1.181956E-3
1.923000E-7	9.250133E-4
1.924000E-7	6.869132E-4
1.925000E-7	5.944139E-4
1.926000E-7	6.372377E-4
1.927000E-7	7.571442E-4
1.928000E-7	8.633471E-4
1.929000E-7	8.873284E-4
1.930000E-7	8.753377E-4
1.931000E-7	8.547823E-4
1.932000E-7	8.239492E-4
1.933000E-7	8.684859E-4
1.934000E-7	8.993190E-4
1.935000E-7	8.821895E-4
1.936000E-7	8.051068E-4
1.937000E-7	7.160334E-4
1.938000E-7	6.714967E-4
1.939000E-7	6.577931E-4
1.940000E-7	7.708478E-4
1.941000E-7	9.027449E-4
1.942000E-7	1.087744E-3
1.943000E-7	1.207650E-3
1.944000E-7	1.200798E-3
1.945000E-7	1.101447E-3
1.946000E-7	8.993190E-4
1.947000E-7	7.091816E-4
1.948000E-7	6.389506E-4
1.949000E-7	6.389506E-4
1.950000E-7	7.160334E-4
1.951000E-7	8.136715E-4
1.952000E-7	8.667730E-4
1.953000E-7	9.592723E-4
1.954000E-7	1.007235E-3
1.955000E-7	1.123715E-3
1.956000E-7	1.221354E-3
1.957000E-7	1.307001E-3
1.958000E-7	1.224780E-3
1.959000E-7	1.051772E-3
1.960000E-7	8.753377E-4
1.961000E-7	8.016809E-4
1.962000E-7	8.736248E-4
1.963000E-7	1.019226E-3
1.964000E-7	1.221354E-3
1.965000E-7	1.312140E-3
1.966000E-7	1.271029E-3
1.967000E-7	1.132280E-3
1.968000E-7	9.164485E-4
1.969000E-7	7.879773E-4
1.970000E-7	7.725607E-4
1.971000E-7	9.130226E-4
1.972000E-7	1.094595E-3
1.973000E-7	1.216215E-3
1.974000E-7	1.197372E-3
1.975000E-7	1.084318E-3
1.976000E-7	9.712629E-4
1.977000E-7	8.804766E-4
1.978000E-7	8.753377E-4
1.979000E-7	9.438557E-4
1.980000E-7	1.024364E-3
1.981000E-7	1.020938E-3
1.982000E-7	9.352910E-4
1.983000E-7	7.091816E-4
1.984000E-7	5.104794E-4
1.985000E-7	3.734434E-4
1.986000E-7	3.871470E-4
1.987000E-7	5.241830E-4
1.988000E-7	7.160334E-4
1.989000E-7	9.061708E-4
1.990000E-7	9.438557E-4
1.991000E-7	8.684859E-4
1.992000E-7	7.040427E-4
1.993000E-7	6.406636E-4
1.994000E-7	7.297370E-4
1.995000E-7	9.695500E-4
1.996000E-7	1.236770E-3
1.997000E-7	1.438898E-3
1.998000E-7	1.507416E-3
1.999000E-7	1.430334E-3
2.000000E-7	1.231631E-3
2.001000E-7	1.043207E-3
