Study Name	Tungsten_Calibration
Sample Name	2024-10-02
Run Name	baseline
Operator	Elena
Date	10/2/2024
Time	14:02
Sign	NEG
Grating Spacing	03.40um
Channel	3
Number Traces	2000
Files in Batch	6
Batch Number	4
dt	100.000001E-12
time stamp (ms)	2:02:44 PM
	
Time	Amplitude
0.000000E+0	2.399873E-5
1.000000E-10	3.049488E-4
2.000000E-10	9.782010E-4
3.000000E-10	1.480142E-3
4.000000E-10	2.783819E-3
5.000000E-10	2.525139E-3
6.000000E-10	1.980370E-3
7.000000E-10	2.036903E-3
8.000000E-10	2.324705E-3
9.000000E-10	1.459585E-3
1.000000E-9	4.368582E-4
1.100000E-9	-3.785821E-4
1.200000E-9	-9.250642E-4
1.300000E-9	-5.156309E-4
1.400000E-9	1.182198E-4
1.500000E-9	2.706866E-4
1.600000E-9	6.766936E-4
1.700000E-9	1.641175E-3
1.800000E-9	2.768401E-3
1.900000E-9	3.143572E-3
2.000000E-9	2.830073E-3
2.100000E-9	2.201362E-3
2.200000E-9	2.463467E-3
2.300000E-9	1.817625E-3
2.400000E-9	7.760540E-4
2.500000E-9	8.103162E-4
2.600000E-9	-7.349090E-4
2.700000E-9	-6.012864E-4
2.800000E-9	5.019564E-4
2.900000E-9	5.721939E-4
3.000000E-9	1.029385E-5
3.100000E-9	4.248665E-4
3.200000E-9	1.786789E-3
3.300000E-9	2.362394E-3
3.400000E-9	3.075048E-3
3.500000E-9	2.136263E-3
3.600000E-9	2.134550E-3
3.700000E-9	2.734139E-3
3.800000E-9	1.610339E-3
3.900000E-9	1.558945E-3
4.000000E-9	-1.197658E-5
4.100000E-9	-1.935662E-4
4.200000E-9	2.057251E-5
4.300000E-9	9.045373E-4
4.400000E-9	7.332263E-4
4.500000E-9	1.420183E-3
4.600000E-9	2.189370E-3
4.700000E-9	2.819794E-3
4.800000E-9	3.313170E-3
4.900000E-9	3.242932E-3
5.000000E-9	3.388547E-3
5.100000E-9	3.237793E-3
5.200000E-9	1.841608E-3
5.300000E-9	1.158078E-3
5.400000E-9	3.768994E-4
5.500000E-9	1.422033E-4
5.600000E-9	-4.385410E-4
5.700000E-9	4.112983E-5
5.800000E-9	-1.575909E-4
5.900000E-9	7.829065E-4
6.000000E-9	1.034734E-3
6.100000E-9	2.340123E-3
6.200000E-9	3.342293E-3
6.300000E-9	3.273768E-3
6.400000E-9	1.802207E-3
6.500000E-9	2.573106E-3
6.600000E-9	2.672467E-3
6.700000E-9	1.271143E-3
6.800000E-9	6.355790E-4
6.900000E-9	-6.304093E-4
7.000000E-9	-6.732370E-4
7.100000E-9	-5.910078E-4
7.200000E-9	5.654782E-5
7.300000E-9	3.888912E-4
7.400000E-9	1.067283E-3
7.500000E-9	1.618904E-3
7.600000E-9	3.030507E-3
7.700000E-9	3.777423E-3
7.800000E-9	2.787245E-3
7.900000E-9	2.232198E-3
8.000000E-9	2.955130E-3
8.100000E-9	2.718721E-3
8.200000E-9	9.610699E-4
8.300000E-9	-7.725974E-4
8.400000E-9	-5.413276E-4
8.500000E-9	-8.394087E-4
8.600000E-9	3.357847E-4
8.700000E-9	-6.508299E-5
8.800000E-9	3.441407E-6
8.900000E-9	1.361938E-3
9.000000E-9	2.615934E-3
9.100000E-9	3.391973E-3
9.200000E-9	2.896884E-3
9.300000E-9	2.424066E-3
9.400000E-9	2.855770E-3
9.500000E-9	2.480598E-3
9.600000E-9	1.245446E-3
9.700000E-9	4.248665E-4
9.800000E-9	-7.364854E-5
9.900000E-9	-4.402541E-4
1.000000E-8	-1.130501E-4
1.010000E-8	7.863327E-4
1.020000E-8	6.304397E-4
1.030000E-8	6.253003E-4
1.040000E-8	1.838182E-3
1.050000E-8	2.555975E-3
1.060000E-8	2.955130E-3
1.070000E-8	2.144829E-3
1.080000E-8	1.956387E-3
1.090000E-8	2.381238E-3
1.100000E-8	1.452732E-3
1.110000E-8	3.888912E-4
1.120000E-8	-3.974263E-4
1.130000E-8	-8.205645E-4
1.140000E-8	-4.471065E-4
1.150000E-8	-2.586644E-4
1.160000E-8	-3.014922E-4
1.170000E-8	8.103162E-4
1.180000E-8	1.264290E-3
1.190000E-8	2.273312E-3
1.200000E-8	2.756409E-3
1.210000E-8	2.287017E-3
1.220000E-8	2.149968E-3
1.230000E-8	2.215066E-3
1.240000E-8	1.733683E-3
1.250000E-8	1.086127E-3
1.260000E-8	6.287266E-4
1.270000E-8	-7.331959E-4
1.280000E-8	-8.428349E-4
1.290000E-8	2.741128E-4
1.300000E-8	-2.535251E-4
1.310000E-8	4.762598E-4
1.320000E-8	7.383656E-4
1.330000E-8	1.821051E-3
1.340000E-8	2.489164E-3
1.350000E-8	3.088753E-3
1.360000E-8	2.929433E-3
1.370000E-8	3.087039E-3
1.380000E-8	2.908876E-3
1.390000E-8	1.904994E-3
1.400000E-8	5.893250E-4
1.410000E-8	2.792521E-4
1.420000E-8	-6.749502E-4
1.430000E-8	2.021622E-4
1.440000E-8	-4.762294E-4
1.450000E-8	2.192933E-4
1.460000E-8	1.104971E-3
1.470000E-8	1.952961E-3
1.480000E-8	3.018515E-3
1.490000E-8	2.960269E-3
1.500000E-8	1.838182E-3
1.510000E-8	1.586355E-3
1.520000E-8	2.773540E-3
1.530000E-8	2.036903E-3
1.540000E-8	1.009037E-3
1.550000E-8	-1.473123E-4
1.560000E-8	-1.712958E-4
1.570000E-8	-2.226891E-4
1.580000E-8	1.387771E-4
1.590000E-8	-1.473123E-4
1.600000E-8	3.837518E-4
1.610000E-8	1.120389E-3
1.620000E-8	2.605656E-3
1.630000E-8	2.985966E-3
1.640000E-8	3.165842E-3
1.650000E-8	1.519544E-3
1.660000E-8	2.633065E-3
1.670000E-8	2.710155E-3
1.680000E-8	1.408192E-3
1.690000E-8	1.781786E-4
1.700000E-8	-3.511724E-4
1.710000E-8	-3.938634E-5
1.720000E-8	8.738380E-5
1.730000E-8	4.969538E-5
1.740000E-8	1.439164E-4
1.750000E-8	3.100881E-4
1.760000E-8	1.651453E-3
1.770000E-8	2.792385E-3
1.780000E-8	2.951704E-3
1.790000E-8	2.658762E-3
1.800000E-8	2.069452E-3
1.810000E-8	2.910589E-3
1.820000E-8	2.513148E-3
1.830000E-8	1.183774E-3
1.840000E-8	1.079411E-4
1.850000E-8	-5.635980E-4
1.860000E-8	-1.026347E-5
1.870000E-8	7.948982E-4
1.880000E-8	4.642680E-4
1.890000E-8	1.320823E-3
1.900000E-8	2.062600E-3
1.910000E-8	2.802663E-3
1.920000E-8	3.141859E-3
1.930000E-8	2.751270E-3
1.940000E-8	2.424066E-3
1.950000E-8	2.434345E-3
1.960000E-8	2.559402E-3
1.970000E-8	1.092979E-3
1.980000E-8	2.210064E-4
1.990000E-8	-4.265492E-4
2.000000E-8	-4.265492E-4
2.010000E-8	2.090146E-4
2.020000E-8	2.638341E-4
2.030000E-8	-6.336988E-5
2.040000E-8	1.396200E-3
2.050000E-8	1.898141E-3
2.060000E-8	3.535874E-3
2.070000E-8	3.302891E-3
2.080000E-8	2.124272E-3
2.090000E-8	1.942682E-3
2.100000E-8	2.902024E-3
2.110000E-8	1.254012E-3
2.120000E-8	1.574363E-3
2.130000E-8	-1.678696E-4
2.140000E-8	-5.498931E-4
2.150000E-8	-9.284904E-4
2.160000E-8	5.070957E-4
2.170000E-8	-2.912135E-4
2.180000E-8	8.120293E-4
2.190000E-8	1.737109E-3
2.200000E-8	3.367989E-3
2.210000E-8	3.201818E-3
2.220000E-8	1.853600E-3
2.230000E-8	1.505839E-3
2.240000E-8	2.627926E-3
2.250000E-8	1.684002E-3
2.260000E-8	9.319470E-4
2.270000E-8	8.942586E-4
2.280000E-8	-9.249275E-5
2.290000E-8	3.477765E-4
2.300000E-8	4.916778E-4
2.310000E-8	7.367892E-5
2.320000E-8	-6.837254E-6
2.330000E-8	1.228315E-3
2.340000E-8	2.136263E-3
2.350000E-8	2.869474E-3
2.360000E-8	2.931146E-3
2.370000E-8	2.244189E-3
2.380000E-8	2.484025E-3
2.390000E-8	2.566254E-3
2.400000E-8	1.596634E-3
2.410000E-8	3.512027E-4
2.420000E-8	1.284984E-4
2.430000E-8	-6.680977E-4
2.440000E-8	-4.077050E-4
2.450000E-8	2.432768E-4
2.460000E-8	5.310793E-4
2.470000E-8	1.341380E-3
2.480000E-8	1.675437E-3
2.490000E-8	2.775253E-3
2.500000E-8	3.640374E-3
2.510000E-8	1.810772E-3
2.520000E-8	1.815912E-3
2.530000E-8	3.099031E-3
2.540000E-8	1.940969E-3
2.550000E-8	1.091266E-3
2.560000E-8	-1.901400E-4
2.570000E-8	-4.762294E-4
2.580000E-8	8.580737E-6
2.590000E-8	7.196581E-5
2.600000E-8	-5.670242E-4
2.610000E-8	1.543318E-5
2.620000E-8	1.009037E-3
2.630000E-8	2.501156E-3
2.640000E-8	3.184687E-3
2.650000E-8	2.907163E-3
2.660000E-8	1.946108E-3
2.670000E-8	2.867761E-3
2.680000E-8	1.850174E-3
2.690000E-8	1.091266E-3
2.700000E-8	8.053136E-5
2.710000E-8	-7.469008E-4
2.720000E-8	-7.520401E-4
2.730000E-8	-5.635980E-4
2.740000E-8	5.826093E-5
2.750000E-8	5.619153E-4
2.760000E-8	1.673724E-3
2.770000E-8	1.807346E-3
2.780000E-8	3.522169E-3
2.790000E-8	3.340580E-3
2.800000E-8	2.011206E-3
2.810000E-8	2.504582E-3
2.820000E-8	3.037359E-3
2.830000E-8	1.600060E-3
2.840000E-8	8.428653E-4
2.850000E-8	2.158670E-4
2.860000E-8	-9.249275E-5
2.870000E-8	-4.693770E-4
2.880000E-8	-3.580248E-4
2.890000E-8	-6.920813E-4
2.900000E-8	4.899646E-4
2.910000E-8	1.906707E-3
2.920000E-8	2.667327E-3
2.930000E-8	2.961982E-3
2.940000E-8	2.389804E-3
2.950000E-8	1.858740E-3
2.960000E-8	3.075048E-3
2.970000E-8	2.098575E-3
2.980000E-8	1.135807E-3
2.990000E-8	-2.910768E-5
3.000000E-8	1.010887E-4
3.010000E-8	-2.226891E-4
3.020000E-8	6.561363E-4
3.030000E-8	3.392110E-4
3.040000E-8	-1.661565E-4
3.050000E-8	4.180140E-4
3.060000E-8	2.191083E-3
3.070000E-8	3.232654E-3
3.080000E-8	2.876327E-3
3.090000E-8	1.325962E-3
3.100000E-8	2.381238E-3
3.110000E-8	2.538844E-3
3.120000E-8	2.242476E-3
3.130000E-8	1.127242E-3
3.140000E-8	-3.253390E-5
3.150000E-8	8.738380E-5
3.160000E-8	-2.055580E-4
3.170000E-8	4.180140E-4
3.180000E-8	3.015225E-4
3.190000E-8	1.286561E-3
3.200000E-8	2.223632E-3
3.210000E-8	3.403965E-3
3.220000E-8	2.932860E-3
3.230000E-8	2.504582E-3
3.240000E-8	2.722147E-3
3.250000E-8	3.182974E-3
3.260000E-8	2.377812E-3
3.270000E-8	1.555519E-3
3.280000E-8	6.682648E-5
3.290000E-8	-5.309122E-5
3.300000E-8	-4.368279E-4
3.310000E-8	5.139482E-4
3.320000E-8	-6.201306E-4
3.330000E-8	2.758259E-4
3.340000E-8	1.248872E-3
3.350000E-8	2.675893E-3
3.360000E-8	3.177834E-3
3.370000E-8	2.763262E-3
3.380000E-8	1.639461E-3
3.390000E-8	2.415500E-3
3.400000E-8	2.619360E-3
3.410000E-8	1.841608E-3
3.420000E-8	5.841857E-4
3.430000E-8	-4.573852E-4
3.440000E-8	-4.950736E-4
3.450000E-8	4.265796E-4
3.460000E-8	1.439164E-4
3.470000E-8	4.916778E-4
3.480000E-8	8.874062E-4
3.490000E-8	2.485738E-3
3.500000E-8	3.172695E-3
3.510000E-8	3.576989E-3
3.520000E-8	1.891289E-3
3.530000E-8	2.156821E-3
3.540000E-8	2.878040E-3
3.550000E-8	1.742248E-3
3.560000E-8	8.462915E-4
3.570000E-8	-7.314828E-4
3.580000E-8	-3.271888E-4
3.590000E-8	-5.124144E-6
3.600000E-8	3.340716E-4
3.610000E-8	3.770361E-5
3.620000E-8	8.702751E-4
3.630000E-8	1.624043E-3
3.640000E-8	2.854056E-3
3.650000E-8	3.342293E-3
3.660000E-8	2.528566E-3
3.670000E-8	2.197935E-3
3.680000E-8	2.559402E-3
3.690000E-8	2.432631E-3
3.700000E-8	1.529822E-3
3.710000E-8	5.653415E-4
3.720000E-8	-6.850921E-5
3.730000E-8	-1.396169E-3
3.740000E-8	-1.969925E-4
3.750000E-8	2.861046E-4
3.760000E-8	6.715543E-4
3.770000E-8	1.629183E-3
3.780000E-8	2.042042E-3
3.790000E-8	3.049351E-3
3.800000E-8	3.138433E-3
3.810000E-8	1.731969E-3
3.820000E-8	2.249329E-3
3.830000E-8	2.367533E-3
3.840000E-8	1.211184E-3
3.850000E-8	7.692016E-4
3.860000E-8	9.252313E-5
3.870000E-8	4.796860E-4
3.880000E-8	6.407183E-4
3.890000E-8	1.046725E-3
3.900000E-8	3.392110E-4
3.910000E-8	6.030299E-4
3.920000E-8	1.678863E-3
3.930000E-8	2.725573E-3
3.940000E-8	3.630095E-3
3.950000E-8	2.593664E-3
3.960000E-8	1.858740E-3
3.970000E-8	2.694737E-3
3.980000E-8	1.848461E-3
3.990000E-8	1.464724E-3
4.000000E-8	1.918835E-4
4.010000E-8	-1.918531E-4
4.020000E-8	4.745467E-4
4.030000E-8	5.790464E-4
4.040000E-8	4.077354E-4
4.050000E-8	4.831122E-4
4.060000E-8	9.782010E-4
4.070000E-8	2.727286E-3
4.080000E-8	3.434801E-3
4.090000E-8	2.821507E-3
4.100000E-8	2.215066E-3
4.110000E-8	2.218493E-3
4.120000E-8	2.353828E-3
4.130000E-8	1.819338E-3
4.140000E-8	3.563421E-4
4.150000E-8	-4.111312E-4
4.160000E-8	-2.518120E-4
4.170000E-8	1.747524E-4
4.180000E-8	3.015225E-4
4.190000E-8	-2.312547E-4
4.200000E-8	5.841857E-4
4.210000E-8	1.656593E-3
4.220000E-8	2.896884E-3
4.230000E-8	3.337153E-3
4.240000E-8	2.024911E-3
4.250000E-8	2.595377E-3
4.260000E-8	2.852343E-3
4.270000E-8	2.487451E-3
4.280000E-8	9.439388E-4
4.290000E-8	-6.201306E-4
4.300000E-8	-5.601718E-4
4.310000E-8	-1.918531E-4
4.320000E-8	4.282927E-4
4.330000E-8	-4.179837E-4
4.340000E-8	9.199553E-4
4.350000E-8	1.704560E-3
4.360000E-8	3.313170E-3
4.370000E-8	2.847204E-3
4.380000E-8	2.859196E-3
4.390000E-8	2.446336E-3
4.400000E-8	3.080187E-3
4.410000E-8	2.369246E-3
4.420000E-8	1.800494E-3
4.430000E-8	8.240211E-4
4.440000E-8	-4.248361E-4
4.450000E-8	-8.651054E-4
4.460000E-8	4.455605E-5
4.470000E-8	-1.318943E-4
4.480000E-8	1.885940E-5
4.490000E-8	1.099832E-3
4.500000E-8	1.968379E-3
4.510000E-8	3.078474E-3
4.520000E-8	4.144028E-3
4.530000E-8	3.165842E-3
4.540000E-8	2.439484E-3
4.550000E-8	2.441197E-3
4.560000E-8	1.750814E-3
4.570000E-8	1.370640E-4
4.580000E-8	2.038753E-4
4.590000E-8	-2.398202E-4
4.600000E-8	3.220799E-4
4.610000E-8	5.996037E-4
4.620000E-8	-1.952794E-4
4.630000E-8	2.672603E-4
4.640000E-8	1.185487E-3
4.650000E-8	2.653623E-3
4.660000E-8	2.982540E-3
4.670000E-8	3.117875E-3
4.680000E-8	2.293869E-3
4.690000E-8	2.134550E-3
4.700000E-8	1.839895E-3
4.710000E-8	1.147799E-3
4.720000E-8	6.867627E-6
4.730000E-8	-4.796556E-4
4.740000E-8	-4.111312E-4
4.750000E-8	-7.193543E-5
4.760000E-8	4.882515E-4
4.770000E-8	1.310544E-3
4.780000E-8	2.054034E-3
4.790000E-8	3.184687E-3
4.800000E-8	3.965865E-3
4.810000E-8	3.135007E-3
4.820000E-8	1.553806E-3
4.830000E-8	2.502869E-3
4.840000E-8	2.991105E-3
4.850000E-8	9.148159E-4
4.860000E-8	2.467030E-4
4.870000E-8	-8.633923E-4
4.880000E-8	-3.631641E-4
4.890000E-8	9.594935E-5
4.900000E-8	6.235872E-4
4.910000E-8	1.336378E-4
4.920000E-8	8.171687E-4
4.930000E-8	1.932403E-3
4.940000E-8	3.135007E-3
4.950000E-8	3.409104E-3
4.960000E-8	2.770114E-3
4.970000E-8	2.828360E-3
4.980000E-8	2.937999E-3
4.990000E-8	1.983797E-3
5.000000E-8	1.382495E-3
5.010000E-8	2.227195E-4
5.020000E-8	-8.548267E-4
5.030000E-8	-1.678696E-4
5.040000E-8	4.128747E-4
5.050000E-8	3.409241E-4
5.060000E-8	-4.966500E-5
5.070000E-8	1.451019E-3
5.080000E-8	2.783819E-3
5.090000E-8	2.922581E-3
5.100000E-8	2.091723E-3
5.110000E-8	2.139690E-3
5.120000E-8	2.821507E-3
5.130000E-8	1.581216E-3
5.140000E-8	1.793641E-3
5.150000E-8	8.171687E-4
5.160000E-8	-6.336988E-5
5.170000E-8	-3.460330E-4
5.180000E-8	2.244326E-4
5.190000E-8	4.214402E-4
5.200000E-8	-6.679610E-5
5.210000E-8	1.510978E-3
5.220000E-8	2.593664E-3
5.230000E-8	3.311457E-3
5.240000E-8	3.215523E-3
5.250000E-8	2.225345E-3
5.260000E-8	2.751270E-3
5.270000E-8	3.463924E-3
5.280000E-8	1.846748E-3
5.290000E-8	5.105220E-4
5.300000E-8	-4.042788E-4
5.310000E-8	-4.795189E-5
5.320000E-8	3.323585E-4
5.330000E-8	5.910381E-4
5.340000E-8	7.160952E-4
5.350000E-8	1.079274E-3
5.360000E-8	1.846748E-3
5.370000E-8	2.751270E-3
5.380000E-8	2.884892E-3
5.390000E-8	2.768401E-3
5.400000E-8	1.937543E-3
5.410000E-8	2.956843E-3
5.420000E-8	2.562828E-3
5.430000E-8	1.226602E-3
5.440000E-8	7.829065E-4
5.450000E-8	4.385713E-4
5.460000E-8	6.682648E-5
5.470000E-8	1.661869E-4
5.480000E-8	5.312160E-5
5.490000E-8	5.636284E-4
5.500000E-8	9.165290E-4
5.510000E-8	2.564541E-3
5.520000E-8	3.344006E-3
5.530000E-8	3.073335E-3
5.540000E-8	1.942682E-3
5.550000E-8	2.831786E-3
5.560000E-8	2.290443E-3
5.570000E-8	2.030051E-3
5.580000E-8	9.713486E-4
5.590000E-8	-2.244022E-4
5.600000E-8	-6.663846E-4
5.610000E-8	-4.059919E-4
5.620000E-8	-4.795189E-5
5.630000E-8	2.878177E-4
5.640000E-8	1.627470E-3
5.650000E-8	1.471577E-3
5.660000E-8	3.582128E-3
5.670000E-8	3.568423E-3
5.680000E-8	2.237337E-3
5.690000E-8	2.554262E-3
5.700000E-8	2.362394E-3
5.710000E-8	2.096862E-3
5.720000E-8	9.833403E-4
5.730000E-8	1.764655E-4
5.740000E-8	8.053136E-5
5.750000E-8	-4.950736E-4
5.760000E-8	-2.466727E-4
5.770000E-8	4.798227E-5
5.780000E-8	4.488500E-4
5.790000E-8	1.502413E-3
5.800000E-8	2.271599E-3
5.810000E-8	4.030963E-3
5.820000E-8	3.265203E-3
5.830000E-8	1.920412E-3
5.840000E-8	2.441197E-3
5.850000E-8	2.100288E-3
5.860000E-8	1.495560E-3
5.870000E-8	4.454238E-4
5.880000E-8	-4.452567E-5
5.890000E-8	-8.735342E-5
5.900000E-8	3.734732E-4
5.910000E-8	-4.452567E-5
5.920000E-8	5.584890E-4
5.930000E-8	1.130668E-3
5.940000E-8	2.060887E-3
5.950000E-8	2.525139E-3
5.960000E-8	3.325162E-3
5.970000E-8	3.160703E-3
5.980000E-8	2.859196E-3
5.990000E-8	3.119589E-3
6.000000E-8	2.019772E-3
6.010000E-8	1.279708E-3
6.020000E-8	-1.199025E-4
6.030000E-8	-3.871477E-4
6.040000E-8	-2.518120E-4
6.050000E-8	2.073015E-4
6.060000E-8	3.786125E-4
6.070000E-8	1.439164E-4
6.080000E-8	1.553806E-3
6.090000E-8	3.170982E-3
6.100000E-8	3.806546E-3
6.110000E-8	2.946564E-3
6.120000E-8	1.718265E-3
6.130000E-8	2.840352E-3
6.140000E-8	2.038616E-3
6.150000E-8	1.437314E-3
6.160000E-8	5.293662E-4
6.170000E-8	-1.455992E-4
6.180000E-8	-5.122047E-4
6.190000E-8	1.233591E-4
6.200000E-8	1.370640E-4
6.210000E-8	-2.946397E-4
6.220000E-8	1.137520E-3
6.230000E-8	2.408648E-3
6.240000E-8	3.121302E-3
6.250000E-8	2.931146E-3
6.260000E-8	1.951247E-3
6.270000E-8	2.655336E-3
6.280000E-8	2.494303E-3
6.290000E-8	1.582929E-3
6.300000E-8	2.878177E-4
6.310000E-8	-5.961471E-4
6.320000E-8	-5.019260E-4
6.330000E-8	6.715543E-4
6.340000E-8	9.252313E-5
6.350000E-8	-4.094181E-4
6.360000E-8	5.790464E-4
6.370000E-8	1.152938E-3
6.380000E-8	2.768401E-3
6.390000E-8	2.657049E-3
6.400000E-8	1.968379E-3
6.410000E-8	1.781650E-3
6.420000E-8	3.020228E-3
6.430000E-8	1.797068E-3
6.440000E-8	1.576076E-3
6.450000E-8	2.586948E-4
6.460000E-8	-2.910768E-5
6.470000E-8	-6.475404E-4
6.480000E-8	2.057251E-5
6.490000E-8	-1.558778E-4
6.500000E-8	6.390052E-4
6.510000E-8	1.677150E-3
6.520000E-8	2.326419E-3
6.530000E-8	3.499899E-3
6.540000E-8	3.198392E-3
6.550000E-8	2.083157E-3
6.560000E-8	2.761549E-3
6.570000E-8	1.992362E-3
6.580000E-8	1.553806E-3
6.590000E-8	6.578494E-4
6.600000E-8	-2.466727E-4
6.610000E-8	-2.124105E-4
6.620000E-8	-3.151971E-4
6.630000E-8	7.503574E-4
6.640000E-8	5.327924E-4
6.650000E-8	8.000376E-4
6.660000E-8	2.571393E-3
6.670000E-8	4.025824E-3
6.680000E-8	4.144028E-3
6.690000E-8	2.393230E-3
6.700000E-8	2.288730E-3
6.710000E-8	3.015089E-3
6.720000E-8	2.132837E-3
6.730000E-8	1.439028E-3
6.740000E-8	5.140849E-5
6.750000E-8	-3.905739E-4
6.760000E-8	-1.164763E-4
6.770000E-8	-3.169102E-4
6.780000E-8	-1.096239E-4
6.790000E-8	4.282927E-4
6.800000E-8	1.857026E-3
6.810000E-8	2.886606E-3
6.820000E-8	3.239506E-3
6.830000E-8	2.309287E-3
6.840000E-8	2.127698E-3
6.850000E-8	2.864335E-3
6.860000E-8	2.406935E-3
6.870000E-8	1.039873E-3
6.880000E-8	3.597683E-4
6.890000E-8	-3.614510E-4
6.900000E-8	-1.798614E-4
6.910000E-8	6.578494E-4
6.920000E-8	4.145878E-4
6.930000E-8	6.458577E-4
6.940000E-8	8.308735E-4
6.950000E-8	2.249329E-3
6.960000E-8	3.374842E-3
6.970000E-8	3.470776E-3
6.980000E-8	2.021485E-3
6.990000E-8	1.783363E-3
7.000000E-8	2.465180E-3
7.010000E-8	1.308831E-3
7.020000E-8	8.034638E-4
7.030000E-8	-2.946397E-4
7.040000E-8	-6.663846E-4
7.050000E-8	-2.655169E-4
7.060000E-8	1.010887E-4
7.070000E-8	-3.100577E-4
7.080000E-8	1.027881E-3
7.090000E-8	2.389804E-3
7.100000E-8	3.599259E-3
7.110000E-8	3.551292E-3
7.120000E-8	3.273768E-3
7.130000E-8	2.574820E-3
7.140000E-8	3.027081E-3
7.150000E-8	2.161960E-3
7.160000E-8	1.146086E-3
7.170000E-8	8.771275E-4
7.180000E-8	3.441407E-6
7.190000E-8	-3.032053E-4
7.200000E-8	-9.591897E-5
7.210000E-8	5.379317E-4
7.220000E-8	2.980963E-4
7.230000E-8	1.207758E-3
7.240000E-8	2.497730E-3
7.250000E-8	3.770570E-3
7.260000E-8	3.813398E-3
7.270000E-8	2.245902E-3
7.280000E-8	2.185944E-3
7.290000E-8	2.472033E-3
7.300000E-8	1.807346E-3
7.310000E-8	1.970228E-4
7.320000E-8	-1.541647E-4
7.330000E-8	-8.154252E-4
7.340000E-8	3.374979E-4
7.350000E-8	4.368582E-4
7.360000E-8	-2.396835E-5
7.370000E-8	1.216323E-3
7.380000E-8	1.466437E-3
7.390000E-8	3.076761E-3
7.400000E-8	3.965865E-3
7.410000E-8	2.752983E-3
7.420000E-8	2.319566E-3
7.430000E-8	2.605656E-3
7.440000E-8	1.834756E-3
7.450000E-8	1.180348E-3
7.460000E-8	2.518424E-4
7.470000E-8	-2.860742E-4
7.480000E-8	-3.905739E-4
7.490000E-8	6.869723E-4
7.500000E-8	3.255061E-4
7.510000E-8	7.298001E-4
7.520000E-8	1.605199E-3
7.530000E-8	2.866048E-3
7.540000E-8	3.009949E-3
7.550000E-8	3.242932E-3
7.560000E-8	2.165386E-3
7.570000E-8	2.946564E-3
7.580000E-8	2.146542E-3
7.590000E-8	1.778223E-3
7.600000E-8	2.107277E-4
7.610000E-8	-6.218437E-4
7.620000E-8	-5.464669E-4
7.630000E-8	-2.620906E-4
7.640000E-8	-3.938634E-5
7.650000E-8	-4.145574E-4
7.660000E-8	1.185487E-3
7.670000E-8	2.120845E-3
7.680000E-8	2.807802E-3
7.690000E-8	3.282334E-3
7.700000E-8	1.951247E-3
7.710000E-8	2.338410E-3
7.720000E-8	2.593664E-3
7.730000E-8	6.921116E-4
7.740000E-8	7.486443E-4
7.750000E-8	-5.137811E-5
7.760000E-8	-3.169102E-4
7.770000E-8	-1.712958E-4
7.780000E-8	-8.050098E-5
7.790000E-8	6.167348E-4
7.800000E-8	4.813991E-4
7.810000E-8	1.836469E-3
7.820000E-8	3.143572E-3
7.830000E-8	2.982540E-3
7.840000E-8	2.329845E-3
7.850000E-8	1.935829E-3
7.860000E-8	2.689598E-3
7.870000E-8	2.449762E-3
7.880000E-8	1.584642E-3
7.890000E-8	6.681281E-4
7.900000E-8	-5.978602E-4
7.910000E-8	-2.312547E-4
7.920000E-8	4.351451E-4
7.930000E-8	2.381375E-4
7.940000E-8	1.293413E-3
7.950000E-8	1.293413E-3
7.960000E-8	2.352115E-3
7.970000E-8	2.924294E-3
7.980000E-8	3.294326E-3
7.990000E-8	2.540557E-3
8.000000E-8	2.456615E-3
8.010000E-8	1.971805E-3
8.020000E-8	1.375643E-3
8.030000E-8	1.091266E-3
8.040000E-8	2.192933E-4
8.050000E-8	-8.788102E-4
8.060000E-8	-2.432464E-4
8.070000E-8	7.280869E-4
8.080000E-8	7.794802E-4
8.090000E-8	1.146086E-3
8.100000E-8	1.740535E-3
8.110000E-8	3.410817E-3
8.120000E-8	3.433088E-3
8.130000E-8	1.983797E-3
8.140000E-8	2.259607E-3
8.150000E-8	2.645057E-3
8.160000E-8	1.874158E-3
8.170000E-8	1.111824E-3
8.180000E-8	4.163009E-4
8.190000E-8	-3.905739E-4
8.200000E-8	-5.361882E-4
8.210000E-8	7.006772E-4
8.220000E-8	2.963832E-4
8.230000E-8	1.257438E-3
8.240000E-8	1.579503E-3
8.250000E-8	2.538844E-3
8.260000E-8	3.352571E-3
8.270000E-8	2.989392E-3
8.280000E-8	2.125985E-3
8.290000E-8	2.890032E-3
8.300000E-8	2.014633E-3
8.310000E-8	1.003898E-3
8.320000E-8	-5.396145E-4
8.330000E-8	-8.942282E-4
8.340000E-8	-3.032053E-4
8.350000E-8	-2.004187E-4
8.360000E-8	1.935966E-4
8.370000E-8	8.445784E-4
8.380000E-8	9.165290E-4
8.390000E-8	1.819338E-3
8.400000E-8	3.009949E-3
8.410000E-8	3.803119E-3
8.420000E-8	2.790671E-3
8.430000E-8	2.365820E-3
8.440000E-8	2.406935E-3
8.450000E-8	1.553806E-3
8.460000E-8	1.012463E-3
8.470000E-8	7.881825E-5
8.480000E-8	-5.892947E-4
8.490000E-8	1.953097E-4
8.500000E-8	3.152274E-4
8.510000E-8	-9.420586E-5
8.520000E-8	2.227195E-4
8.530000E-8	1.288274E-3
8.540000E-8	3.203531E-3
8.550000E-8	3.702046E-3
8.560000E-8	2.912302E-3
8.570000E-8	2.480598E-3
8.580000E-8	2.621074E-3
8.590000E-8	2.285304E-3
8.600000E-8	1.641175E-3
8.610000E-8	6.544232E-4
8.620000E-8	1.147936E-4
8.630000E-8	-6.508299E-5
8.640000E-8	1.728297E-6
8.650000E-8	-2.518120E-4
8.660000E-8	-2.672300E-4
8.670000E-8	1.017603E-3
8.680000E-8	2.523426E-3
8.690000E-8	2.854056E-3
8.700000E-8	3.313170E-3
8.710000E-8	2.847204E-3
8.720000E-8	2.979113E-3
8.730000E-8	2.338410E-3
8.740000E-8	1.295126E-3
8.750000E-8	6.321528E-4
8.760000E-8	-2.826480E-4
8.770000E-8	-5.875815E-4
8.780000E-8	-9.591897E-5
8.790000E-8	4.574156E-4
8.800000E-8	-2.843611E-4
8.810000E-8	4.557024E-4
8.820000E-8	1.704560E-3
8.830000E-8	3.633522E-3
8.840000E-8	4.159446E-3
8.850000E-8	2.742704E-3
8.860000E-8	1.731969E-3
8.870000E-8	2.590238E-3
8.880000E-8	1.510978E-3
8.890000E-8	1.192340E-3
8.900000E-8	1.576213E-4
8.910000E-8	-5.704504E-4
8.920000E-8	-5.019260E-4
8.930000E-8	5.225137E-4
8.940000E-8	1.079411E-4
8.950000E-8	5.567759E-4
8.960000E-8	1.552093E-3
8.970000E-8	2.466894E-3
8.980000E-8	2.949991E-3
8.990000E-8	3.035646E-3
9.000000E-8	2.348689E-3
9.010000E-8	2.603942E-3
9.020000E-8	2.989392E-3
9.030000E-8	1.365364E-3
9.040000E-8	6.749805E-4
9.050000E-8	-9.591897E-5
9.060000E-8	3.512027E-4
9.070000E-8	3.563421E-4
9.080000E-8	-8.050098E-5
9.090000E-8	-2.723693E-4
9.100000E-8	1.130668E-3
9.110000E-8	1.721691E-3
9.120000E-8	3.772283E-3
9.130000E-8	3.708898E-3
9.140000E-8	2.134550E-3
9.150000E-8	2.509721E-3
9.160000E-8	3.220662E-3
9.170000E-8	1.562372E-3
9.180000E-8	7.383656E-4
9.190000E-8	5.156613E-4
9.200000E-8	-1.540280E-5
9.210000E-8	2.963832E-4
9.220000E-8	3.135143E-4
9.230000E-8	3.272192E-4
9.240000E-8	4.334320E-4
9.250000E-8	9.559306E-4
9.260000E-8	2.823220E-3
9.270000E-8	2.972261E-3
9.280000E-8	1.809059E-3
9.290000E-8	1.630896E-3
9.300000E-8	2.062600E-3
9.310000E-8	2.131124E-3
9.320000E-8	1.536675E-3
9.330000E-8	1.816048E-4
9.340000E-8	-3.203364E-4
9.350000E-8	-5.430407E-4
9.360000E-8	4.454238E-4
9.370000E-8	2.312850E-4
9.380000E-8	-2.106973E-4
9.390000E-8	7.092427E-4
9.400000E-8	2.631352E-3
9.410000E-8	3.738021E-3
9.420000E-8	3.302891E-3
9.430000E-8	1.317397E-3
9.440000E-8	1.584642E-3
9.450000E-8	2.107140E-3
9.460000E-8	1.507552E-3
9.470000E-8	1.295126E-3
9.480000E-8	-1.181894E-4
9.490000E-8	-1.490254E-4
9.500000E-8	2.843914E-4
9.510000E-8	7.572098E-4
9.520000E-8	9.937557E-5
9.530000E-8	7.537836E-4
9.540000E-8	1.863879E-3
9.550000E-8	3.424522E-3
9.560000E-8	3.602686E-3
9.570000E-8	2.516574E-3
9.580000E-8	1.836469E-3
9.590000E-8	2.710155E-3
9.600000E-8	1.800494E-3
9.610000E-8	1.403052E-3
9.620000E-8	2.158670E-4
9.630000E-8	2.107277E-4
9.640000E-8	-3.443199E-4
9.650000E-8	1.267853E-4
9.660000E-8	-5.773029E-4
9.670000E-8	1.199329E-4
9.680000E-8	1.254012E-3
9.690000E-8	2.137976E-3
9.700000E-8	3.493046E-3
9.710000E-8	3.532448E-3
9.720000E-8	1.817625E-3
9.730000E-8	2.492590E-3
9.740000E-8	2.586811E-3
9.750000E-8	2.030051E-3
9.760000E-8	6.390052E-4
9.770000E-8	-5.104916E-4
9.780000E-8	3.441407E-6
9.790000E-8	2.878177E-4
9.800000E-8	5.140849E-5
9.810000E-8	-6.389748E-4
9.820000E-8	6.766936E-4
9.830000E-8	2.091723E-3
9.840000E-8	3.667784E-3
9.850000E-8	4.263946E-3
9.860000E-8	2.302435E-3
9.870000E-8	1.517831E-3
9.880000E-8	2.372673E-3
9.890000E-8	2.233911E-3
9.900000E-8	1.899854E-3
9.910000E-8	1.713262E-4
9.920000E-8	-6.269831E-4
9.930000E-8	-1.987056E-4
9.940000E-8	5.826093E-5
9.950000E-8	2.878177E-4
9.960000E-8	-2.158367E-4
9.970000E-8	1.154651E-3
9.980000E-8	2.456615E-3
9.990000E-8	3.232654E-3
1.000000E-7	3.378268E-3
1.001000E-7	2.453189E-3
1.002000E-7	2.168812E-3
1.003000E-7	2.420640E-3
1.004000E-7	8.908324E-4
1.005000E-7	4.454238E-4
1.006000E-7	-5.344751E-4
1.007000E-7	4.402845E-4
1.008000E-7	5.653415E-4
1.009000E-7	5.002433E-4
1.010000E-7	-6.149913E-4
1.011000E-7	1.058717E-3
1.012000E-7	2.244189E-3
1.013000E-7	2.782106E-3
1.014000E-7	2.776967E-3
1.015000E-7	1.959813E-3
1.016000E-7	2.391517E-3
1.017000E-7	2.915728E-3
1.018000E-7	1.985510E-3
1.019000E-7	9.302339E-4
1.020000E-7	2.107277E-4
1.021000E-7	-2.535251E-4
1.022000E-7	3.649076E-4
1.023000E-7	3.049488E-4
1.024000E-7	-8.550364E-6
1.025000E-7	1.039873E-3
1.026000E-7	1.884436E-3
1.027000E-7	3.051064E-3
1.028000E-7	3.541014E-3
1.029000E-7	2.677606E-3
1.030000E-7	2.091723E-3
1.031000E-7	3.318309E-3
1.032000E-7	1.925551E-3
1.033000E-7	1.070709E-3
1.034000E-7	9.766246E-5
1.035000E-7	-3.580248E-4
1.036000E-7	-2.740824E-4
1.037000E-7	-3.082079E-5
1.038000E-7	-3.545986E-4
1.039000E-7	3.768994E-4
1.040000E-7	1.435601E-3
1.041000E-7	2.963696E-3
1.042000E-7	3.441653E-3
1.043000E-7	3.338867E-3
1.044000E-7	1.781650E-3
1.045000E-7	2.192796E-3
1.046000E-7	3.042499E-3
1.047000E-7	2.257894E-3
1.048000E-7	1.010750E-3
1.049000E-7	-1.130501E-4
1.050000E-7	-2.877873E-4
1.051000E-7	3.237930E-4
1.052000E-7	2.501292E-4
1.053000E-7	-2.963528E-4
1.054000E-7	9.594935E-5
1.055000E-7	2.180804E-3
1.056000E-7	3.421096E-3
1.057000E-7	3.405678E-3
1.058000E-7	2.132837E-3
1.059000E-7	2.235624E-3
1.060000E-7	3.251498E-3
1.061000E-7	2.136263E-3
1.062000E-7	6.749805E-4
1.063000E-7	3.599050E-5
1.064000E-7	-6.047126E-4
1.065000E-7	-2.620906E-4
1.066000E-7	5.396448E-4
1.067000E-7	1.935966E-4
1.068000E-7	3.666207E-4
1.069000E-7	1.310544E-3
1.070000E-7	2.783819E-3
1.071000E-7	3.775710E-3
1.072000E-7	2.740991E-3
1.073000E-7	2.030051E-3
1.074000E-7	2.811229E-3
1.075000E-7	2.538844E-3
1.076000E-7	1.305405E-3
1.077000E-7	4.231534E-4
1.078000E-7	-8.239907E-4
1.079000E-7	-8.702447E-4
1.080000E-7	-2.226891E-4
1.081000E-7	1.953097E-4
1.082000E-7	7.023903E-4
1.083000E-7	1.392774E-3
1.084000E-7	1.947821E-3
1.085000E-7	2.720434E-3
1.086000E-7	3.369703E-3
1.087000E-7	2.098575E-3
1.088000E-7	2.045469E-3
1.089000E-7	2.600516E-3
1.090000E-7	1.394487E-3
1.091000E-7	9.216684E-4
1.092000E-7	-7.193543E-5
1.093000E-7	-6.441142E-4
1.094000E-7	-3.203364E-4
1.095000E-7	-2.226891E-4
1.096000E-7	-3.237626E-4
1.097000E-7	4.214402E-4
1.098000E-7	1.707986E-3
1.099000E-7	2.499443E-3
1.100000E-7	3.736308E-3
1.101000E-7	2.585098E-3
1.102000E-7	1.903280E-3
1.103000E-7	3.248072E-3
1.104000E-7	2.554262E-3
1.105000E-7	1.507552E-3
1.106000E-7	2.809652E-4
1.107000E-7	4.043091E-4
1.108000E-7	3.941672E-5
1.109000E-7	1.576213E-4
1.110000E-7	-5.755898E-4
1.111000E-7	-2.568146E-5
1.112000E-7	1.742248E-3
1.113000E-7	2.636491E-3
1.114000E-7	3.681489E-3
1.115000E-7	3.402252E-3
1.116000E-7	2.100288E-3
1.117000E-7	3.064769E-3
1.118000E-7	2.245902E-3
1.119000E-7	1.305405E-3
1.120000E-7	3.820387E-4
1.121000E-7	2.329981E-4
1.122000E-7	-1.438861E-4
1.123000E-7	1.353509E-4
1.124000E-7	5.944644E-4
1.125000E-7	2.329981E-4
1.126000E-7	1.077561E-3
1.127000E-7	1.718265E-3
1.128000E-7	2.557688E-3
1.129000E-7	3.260064E-3
1.130000E-7	2.689598E-3
1.131000E-7	2.233911E-3
1.132000E-7	2.429205E-3
1.133000E-7	1.538388E-3
1.134000E-7	1.151225E-3
1.135000E-7	1.147936E-4
1.136000E-7	-3.665904E-4
1.137000E-7	-5.858684E-4
1.138000E-7	3.803256E-4
1.139000E-7	4.969538E-5
1.140000E-7	4.831122E-4
1.141000E-7	1.344807E-3
1.142000E-7	2.919155E-3
1.143000E-7	3.366276E-3
1.144000E-7	3.529022E-3
1.145000E-7	2.480598E-3
1.146000E-7	3.023654E-3
1.147000E-7	3.150424E-3
1.148000E-7	1.771371E-3
1.149000E-7	-4.471065E-4
1.150000E-7	-5.910078E-4
1.151000E-7	-1.695827E-4
1.152000E-7	-1.010583E-4
1.153000E-7	5.756201E-4
1.154000E-7	3.272192E-4
1.155000E-7	1.831330E-3
1.156000E-7	2.160247E-3
1.157000E-7	3.158990E-3
1.158000E-7	3.660931E-3
1.159000E-7	2.057460E-3
1.160000E-7	1.654879E-3
1.161000E-7	2.031764E-3
1.162000E-7	1.706273E-3
1.163000E-7	6.304397E-4
1.164000E-7	9.594935E-5
1.165000E-7	-5.396145E-4
1.166000E-7	-3.597379E-4
1.167000E-7	5.070957E-4
1.168000E-7	-2.449595E-4
1.169000E-7	1.082701E-3
1.170000E-7	1.665158E-3
1.171000E-7	2.792385E-3
1.172000E-7	4.164586E-3
1.173000E-7	2.638205E-3
1.174000E-7	2.209927E-3
1.175000E-7	2.735852E-3
1.176000E-7	2.799237E-3
1.177000E-7	1.622330E-3
1.178000E-7	6.372921E-4
1.179000E-7	-6.595322E-4
1.180000E-7	-7.177779E-4
1.181000E-7	-2.175498E-4
1.182000E-7	5.550628E-4
1.183000E-7	1.833180E-4
1.184000E-7	1.731969E-3
1.185000E-7	2.684459E-3
1.186000E-7	3.681489E-3
1.187000E-7	2.912302E-3
1.188000E-7	2.405222E-3
1.189000E-7	2.227058E-3
1.190000E-7	2.170526E-3
1.191000E-7	1.558945E-3
1.192000E-7	1.125528E-3
1.193000E-7	4.060223E-4
1.194000E-7	-3.253390E-5
1.195000E-7	6.492839E-4
1.196000E-7	3.426372E-4
1.197000E-7	-7.193543E-5
1.198000E-7	5.327924E-4
1.199000E-7	1.791928E-3
1.200000E-7	3.612964E-3
1.201000E-7	3.899054E-3
1.202000E-7	2.787245E-3
1.203000E-7	2.059173E-3
1.204000E-7	3.184687E-3
1.205000E-7	2.113993E-3
1.206000E-7	1.514404E-3
1.207000E-7	3.272192E-4
1.208000E-7	-7.536165E-5
1.209000E-7	-8.325563E-4
1.210000E-7	-5.651744E-5
1.211000E-7	1.833180E-4
1.212000E-7	5.430711E-4
1.213000E-7	1.250585E-3
1.214000E-7	1.879297E-3
1.215000E-7	2.413787E-3
1.216000E-7	2.948278E-3
1.217000E-7	1.672011E-3
1.218000E-7	2.830073E-3
1.219000E-7	2.454902E-3
1.220000E-7	1.833043E-3
1.221000E-7	7.160952E-4
1.222000E-7	-2.997791E-4
1.223000E-7	-5.361882E-4
1.224000E-7	2.295719E-4
1.225000E-7	4.231534E-4
1.226000E-7	2.809652E-4
1.227000E-7	1.834756E-3
1.228000E-7	2.705016E-3
1.229000E-7	3.417670E-3
1.230000E-7	3.729456E-3
1.231000E-7	2.167099E-3
1.232000E-7	2.434345E-3
1.233000E-7	3.373129E-3
1.234000E-7	1.976944E-3
1.235000E-7	1.355085E-3
1.236000E-7	-4.471065E-4
1.237000E-7	-1.062113E-3
1.238000E-7	-8.736709E-4
1.239000E-7	-2.055580E-4
1.240000E-7	-8.651054E-4
1.241000E-7	-4.882212E-4
1.242000E-7	3.734732E-4
1.243000E-7	2.497730E-3
1.244000E-7	3.599259E-3
1.245000E-7	2.994531E-3
1.246000E-7	2.233911E-3
1.247000E-7	2.466894E-3
1.248000E-7	1.810772E-3
1.249000E-7	6.835461E-4
1.250000E-7	1.165067E-4
1.251000E-7	-2.775086E-4
1.252000E-7	-5.173440E-4
1.253000E-7	-7.707476E-5
1.254000E-7	5.362186E-4
1.255000E-7	7.023903E-4
1.256000E-7	1.678863E-3
1.257000E-7	2.977400E-3
1.258000E-7	3.541014E-3
1.259000E-7	3.201818E-3
1.260000E-7	1.819338E-3
1.261000E-7	1.882723E-3
1.262000E-7	2.249329E-3
1.263000E-7	1.834756E-3
1.264000E-7	1.034734E-3
1.265000E-7	8.395758E-5
1.266000E-7	-2.843611E-4
1.267000E-7	1.679000E-4
1.268000E-7	5.139482E-4
1.269000E-7	3.272192E-4
1.270000E-7	8.565702E-4
1.271000E-7	1.570937E-3
1.272000E-7	2.703303E-3
1.273000E-7	2.871188E-3
1.274000E-7	2.715295E-3
1.275000E-7	1.625757E-3
1.276000E-7	2.415500E-3
1.277000E-7	1.663445E-3
1.278000E-7	7.366525E-4
1.279000E-7	1.113673E-4
1.280000E-7	-2.638038E-4
1.281000E-7	-8.479743E-4
1.282000E-7	-2.225524E-5
1.283000E-7	-7.707476E-5
1.284000E-7	9.165290E-4
1.285000E-7	9.799141E-4
1.286000E-7	2.180804E-3
1.287000E-7	3.143572E-3
1.288000E-7	3.052777E-3
1.289000E-7	2.293869E-3
1.290000E-7	3.126441E-3
1.291000E-7	2.684459E-3
1.292000E-7	1.516118E-3
1.293000E-7	1.238594E-3
1.294000E-7	-8.735342E-5
1.295000E-7	-3.820083E-4
1.296000E-7	-3.820083E-4
1.297000E-7	6.340026E-5
1.298000E-7	3.837518E-4
1.299000E-7	1.033021E-3
1.300000E-7	2.108854E-3
1.301000E-7	3.138433E-3
1.302000E-7	2.890032E-3
1.303000E-7	2.497730E-3
1.304000E-7	2.156821E-3
1.305000E-7	2.559402E-3
1.306000E-7	2.035190E-3
1.307000E-7	1.418470E-3
1.308000E-7	-1.113370E-4
1.309000E-7	9.766246E-5
1.310000E-7	-2.346809E-4
1.311000E-7	3.974567E-4
1.312000E-7	-1.610172E-4
1.313000E-7	1.593344E-4
1.314000E-7	8.051769E-4
1.315000E-7	2.662188E-3
1.316000E-7	3.578702E-3
1.317000E-7	3.075048E-3
1.318000E-7	1.952961E-3
1.319000E-7	2.436058E-3
1.320000E-7	2.309287E-3
1.321000E-7	1.749101E-3
1.322000E-7	1.867442E-4
1.323000E-7	-4.522459E-4
1.324000E-7	-8.274169E-4
1.325000E-7	7.196581E-5
1.326000E-7	1.833180E-4
1.327000E-7	3.289323E-4
1.328000E-7	6.989641E-4
1.329000E-7	1.507552E-3
1.330000E-7	2.992818E-3
1.331000E-7	2.900310E-3
1.332000E-7	2.358968E-3
1.333000E-7	2.667327E-3
1.334000E-7	3.325162E-3
1.335000E-7	1.857026E-3
1.336000E-7	8.891193E-4
1.337000E-7	-1.781483E-4
1.338000E-7	-7.297697E-4
1.339000E-7	-8.051465E-4
1.340000E-7	1.028018E-4
1.341000E-7	-7.297697E-4
1.342000E-7	-1.061976E-4
1.343000E-7	1.625757E-3
1.344000E-7	2.492590E-3
1.345000E-7	3.772283E-3
1.346000E-7	3.116162E-3
1.347000E-7	2.836925E-3
1.348000E-7	3.124728E-3
1.349000E-7	2.218493E-3
1.350000E-7	1.301979E-3
1.351000E-7	4.642680E-4
1.352000E-7	4.265796E-4
1.353000E-7	4.008829E-4
1.354000E-7	9.268077E-4
1.355000E-7	3.512027E-4
1.356000E-7	3.512027E-4
1.357000E-7	7.246607E-4
1.358000E-7	2.633065E-3
1.359000E-7	3.153851E-3
1.360000E-7	3.126441E-3
1.361000E-7	2.444623E-3
1.362000E-7	2.862622E-3
1.363000E-7	1.951247E-3
1.364000E-7	2.090009E-3
1.365000E-7	6.047430E-4
1.366000E-7	1.696131E-4
1.367000E-7	-4.111312E-4
1.368000E-7	7.589229E-4
1.369000E-7	4.043091E-4
1.370000E-7	1.182198E-4
1.371000E-7	4.214402E-4
1.372000E-7	9.336601E-4
1.373000E-7	2.417213E-3
1.374000E-7	3.037359E-3
1.375000E-7	2.076305E-3
1.376000E-7	1.893002E-3
1.377000E-7	2.473746E-3
1.378000E-7	1.826190E-3
1.379000E-7	1.612052E-3
1.380000E-7	9.199553E-4
1.381000E-7	-1.730089E-4
1.382000E-7	3.734732E-4
1.383000E-7	5.242268E-4
1.384000E-7	-1.884269E-4
1.385000E-7	4.145878E-4
1.386000E-7	1.033021E-3
1.387000E-7	1.985510E-3
1.388000E-7	3.505038E-3
1.389000E-7	3.362850E-3
1.390000E-7	1.807346E-3
1.391000E-7	2.881466E-3
1.392000E-7	3.208670E-3
1.393000E-7	1.964952E-3
1.394000E-7	4.745467E-4
1.395000E-7	-2.535251E-4
1.396000E-7	-9.353429E-4
1.397000E-7	4.711204E-4
1.398000E-7	3.803256E-4
1.399000E-7	-4.094181E-4
1.400000E-7	9.610699E-4
1.401000E-7	2.048895E-3
1.402000E-7	3.107597E-3
1.403000E-7	3.496473E-3
1.404000E-7	2.485738E-3
1.405000E-7	2.309287E-3
1.406000E-7	2.992818E-3
1.407000E-7	1.790215E-3
1.408000E-7	7.109558E-4
1.409000E-7	-3.631641E-4
1.410000E-7	-6.252700E-4
1.411000E-7	-8.890889E-4
1.412000E-7	6.561363E-4
1.413000E-7	8.599964E-4
1.414000E-7	9.011111E-4
1.415000E-7	1.075848E-3
1.416000E-7	2.800950E-3
1.417000E-7	3.374842E-3
1.418000E-7	2.638205E-3
1.419000E-7	2.050608E-3
1.420000E-7	2.782106E-3
1.421000E-7	2.191083E-3
1.422000E-7	1.529822E-3
1.423000E-7	2.655472E-4
1.424000E-7	-1.181894E-4
1.425000E-7	-1.036416E-3
1.426000E-7	3.100881E-4
1.427000E-7	5.893250E-4
1.428000E-7	4.128747E-4
1.429000E-7	1.488708E-3
1.430000E-7	2.509721E-3
1.431000E-7	3.470776E-3
1.432000E-7	3.429661E-3
1.433000E-7	2.379525E-3
1.434000E-7	2.917442E-3
1.435000E-7	2.338410E-3
1.436000E-7	1.771371E-3
1.437000E-7	1.009037E-3
1.438000E-7	3.256428E-5
1.439000E-7	-6.441142E-4
1.440000E-7	3.906043E-4
1.441000E-7	4.728335E-4
1.442000E-7	-3.545986E-4
1.443000E-7	9.679223E-4
1.444000E-7	1.656593E-3
1.445000E-7	3.128154E-3
1.446000E-7	3.772283E-3
1.447000E-7	2.311001E-3
1.448000E-7	2.300722E-3
1.449000E-7	2.811229E-3
1.450000E-7	2.076305E-3
1.451000E-7	1.406479E-3
1.452000E-7	3.306454E-4
1.453000E-7	-8.633923E-4
1.454000E-7	-2.603775E-4
1.455000E-7	2.569817E-4
1.456000E-7	8.120293E-4
1.457000E-7	8.411522E-4
1.458000E-7	1.317397E-3
1.459000E-7	2.425779E-3
1.460000E-7	3.599259E-3
1.461000E-7	3.568423E-3
1.462000E-7	2.155108E-3
1.463000E-7	2.857483E-3
1.464000E-7	3.123015E-3
1.465000E-7	1.779936E-3
1.466000E-7	1.122102E-3
1.467000E-7	-2.192629E-4
1.468000E-7	-2.929266E-4
1.469000E-7	-3.854346E-4
1.470000E-7	3.083750E-4
1.471000E-7	6.340026E-5
1.472000E-7	8.017507E-4
1.473000E-7	1.817625E-3
1.474000E-7	3.333727E-3
1.475000E-7	3.446793E-3
1.476000E-7	2.802663E-3
1.477000E-7	2.545697E-3
1.478000E-7	2.446336E-3
1.479000E-7	1.632609E-3
1.480000E-7	1.435601E-3
1.481000E-7	6.852592E-4
1.482000E-7	3.083750E-4
1.483000E-7	1.113673E-4
1.484000E-7	3.614814E-4
1.485000E-7	2.895308E-4
1.486000E-7	6.578494E-4
1.487000E-7	1.293413E-3
1.488000E-7	2.564541E-3
1.489000E-7	3.676349E-3
1.490000E-7	2.797524E-3
1.491000E-7	2.201362E-3
1.492000E-7	2.591951E-3
1.493000E-7	2.295583E-3
1.494000E-7	1.427036E-3
1.495000E-7	7.726278E-4
1.496000E-7	1.728297E-6
1.497000E-7	-7.022232E-5
1.498000E-7	1.062280E-4
1.499000E-7	3.512027E-4
1.500000E-7	5.396448E-4
1.501000E-7	1.168356E-3
1.502000E-7	2.543984E-3
1.503000E-7	3.395399E-3
1.504000E-7	3.633522E-3
1.505000E-7	2.295583E-3
1.506000E-7	2.917442E-3
1.507000E-7	2.528566E-3
1.508000E-7	1.266003E-3
1.509000E-7	1.970228E-4
1.510000E-7	-3.289019E-4
1.511000E-7	-6.850921E-5
1.512000E-7	-2.261153E-4
1.513000E-7	2.175802E-4
1.514000E-7	-3.494593E-4
1.515000E-7	8.514309E-4
1.516000E-7	1.795354E-3
1.517000E-7	2.973974E-3
1.518000E-7	3.099031E-3
1.519000E-7	2.475459E-3
1.520000E-7	2.569680E-3
1.521000E-7	3.030507E-3
1.522000E-7	2.334984E-3
1.523000E-7	6.647019E-4
1.524000E-7	-3.596012E-5
1.525000E-7	-5.019260E-4
1.526000E-7	-2.398202E-4
1.527000E-7	9.576437E-4
1.528000E-7	3.083750E-4
1.529000E-7	8.993979E-4
1.530000E-7	1.346520E-3
1.531000E-7	3.030507E-3
1.532000E-7	3.453645E-3
1.533000E-7	2.615934E-3
1.534000E-7	2.552549E-3
1.535000E-7	2.643344E-3
1.536000E-7	2.110567E-3
1.537000E-7	1.068996E-3
1.538000E-7	9.081002E-5
1.539000E-7	-1.318943E-4
1.540000E-7	-6.783764E-4
1.541000E-7	-2.054213E-5
1.542000E-7	3.820387E-4
1.543000E-7	5.345055E-4
1.544000E-7	8.754144E-4
1.545000E-7	2.287017E-3
1.546000E-7	3.177834E-3
1.547000E-7	3.511891E-3
1.548000E-7	2.739278E-3
1.549000E-7	2.749557E-3
1.550000E-7	2.593664E-3
1.551000E-7	1.819338E-3
1.552000E-7	2.004491E-4
1.553000E-7	-1.181894E-4
1.554000E-7	-6.508299E-5
1.555000E-7	-2.963528E-4
1.556000E-7	7.196581E-5
1.557000E-7	-6.679610E-5
1.558000E-7	8.738380E-5
1.559000E-7	1.132381E-3
1.560000E-7	2.319566E-3
1.561000E-7	3.856226E-3
1.562000E-7	2.758122E-3
1.563000E-7	1.764518E-3
1.564000E-7	2.177378E-3
1.565000E-7	2.859196E-3
1.566000E-7	1.454446E-3
1.567000E-7	2.843914E-4
1.568000E-7	-1.695827E-4
1.569000E-7	-7.657450E-4
1.570000E-7	2.090146E-4
1.571000E-7	3.392110E-4
1.572000E-7	1.918835E-4
1.573000E-7	1.800494E-3
1.574000E-7	2.605656E-3
1.575000E-7	3.170982E-3
1.576000E-7	3.069908E-3
1.577000E-7	2.153394E-3
1.578000E-7	2.314427E-3
1.579000E-7	3.075048E-3
1.580000E-7	1.747387E-3
1.581000E-7	6.801199E-4
1.582000E-7	6.682648E-5
1.583000E-7	-5.139178E-4
1.584000E-7	5.312160E-5
1.585000E-7	4.626916E-5
1.586000E-7	-2.620906E-4
1.587000E-7	5.242268E-4
1.588000E-7	1.295126E-3
1.589000E-7	3.592407E-3
1.590000E-7	3.369703E-3
1.591000E-7	2.484025E-3
1.592000E-7	1.992362E-3
1.593000E-7	2.454902E-3
1.594000E-7	2.215066E-3
1.595000E-7	1.594921E-3
1.596000E-7	3.923174E-4
1.597000E-7	-5.002129E-4
1.598000E-7	-1.421729E-4
1.599000E-7	2.381375E-4
1.600000E-7	-4.967867E-4
1.601000E-7	4.317189E-4
1.602000E-7	5.756201E-4
1.603000E-7	2.233911E-3
1.604000E-7	2.722147E-3
1.605000E-7	2.482312E-3
1.606000E-7	1.512691E-3
1.607000E-7	2.549123E-3
1.608000E-7	2.196222E-3
1.609000E-7	1.589781E-3
1.610000E-7	4.831122E-4
1.611000E-7	-2.072711E-4
1.612000E-7	-5.207703E-4
1.613000E-7	-9.591897E-5
1.614000E-7	-2.329678E-4
1.615000E-7	4.969538E-5
1.616000E-7	7.298001E-4
1.617000E-7	2.052321E-3
1.618000E-7	2.657049E-3
1.619000E-7	3.075048E-3
1.620000E-7	2.132837E-3
1.621000E-7	2.263034E-3
1.622000E-7	1.697707E-3
1.623000E-7	1.785076E-3
1.624000E-7	1.070709E-3
1.625000E-7	1.970228E-4
1.626000E-7	-6.218437E-4
1.627000E-7	-4.162705E-4
1.628000E-7	-4.522459E-4
1.629000E-7	-8.616791E-4
1.630000E-7	9.011111E-4
1.631000E-7	1.567511E-3
1.632000E-7	2.665614E-3
1.633000E-7	3.063056E-3
1.634000E-7	2.876327E-3
1.635000E-7	2.096862E-3
1.636000E-7	2.979113E-3
1.637000E-7	2.516574E-3
1.638000E-7	1.264290E-3
1.639000E-7	8.908324E-4
1.640000E-7	-3.614510E-4
1.641000E-7	-7.400483E-4
1.642000E-7	9.766246E-5
1.643000E-7	6.818330E-4
1.644000E-7	3.289323E-4
1.645000E-7	8.839800E-4
1.646000E-7	1.689142E-3
1.647000E-7	2.840352E-3
1.648000E-7	3.582128E-3
1.649000E-7	2.352115E-3
1.650000E-7	2.552549E-3
1.651000E-7	2.756409E-3
1.652000E-7	1.704560E-3
1.653000E-7	1.021029E-3
1.654000E-7	1.576213E-4
1.655000E-7	7.881825E-5
1.656000E-7	9.285208E-4
1.657000E-7	3.203668E-4
1.658000E-7	-5.124144E-6
1.659000E-7	1.199329E-4
1.660000E-7	1.223176E-3
1.661000E-7	3.222375E-3
1.662000E-7	3.746587E-3
1.663000E-7	2.557688E-3
1.664000E-7	1.740535E-3
1.665000E-7	2.480598E-3
1.666000E-7	2.266460E-3
1.667000E-7	1.531536E-3
1.668000E-7	5.567759E-4
1.669000E-7	-3.186233E-4
1.670000E-7	-7.400483E-4
1.671000E-7	-6.047126E-4
1.672000E-7	-6.029995E-4
1.673000E-7	1.147936E-4
1.674000E-7	4.043091E-4
1.675000E-7	2.021485E-3
1.676000E-7	3.064769E-3
1.677000E-7	2.831786E-3
1.678000E-7	1.594921E-3
1.679000E-7	2.170526E-3
1.680000E-7	2.501156E-3
1.681000E-7	1.259151E-3
1.682000E-7	1.295126E-3
1.683000E-7	5.122351E-4
1.684000E-7	1.182198E-4
1.685000E-7	2.004491E-4
1.686000E-7	2.158670E-4
1.687000E-7	-4.128443E-4
1.688000E-7	1.226602E-3
1.689000E-7	1.968379E-3
1.690000E-7	3.100744E-3
1.691000E-7	2.759835E-3
1.692000E-7	2.113993E-3
1.693000E-7	1.980370E-3
1.694000E-7	2.785532E-3
1.695000E-7	1.670297E-3
1.696000E-7	1.005611E-3
1.697000E-7	1.165067E-4
1.698000E-7	-3.597379E-4
1.699000E-7	4.077354E-4
1.700000E-7	9.833403E-4
1.701000E-7	9.423624E-5
1.702000E-7	2.569817E-4
1.703000E-7	1.593207E-3
1.704000E-7	2.907163E-3
1.705000E-7	2.754696E-3
1.706000E-7	3.025367E-3
1.707000E-7	2.312714E-3
1.708000E-7	2.783819E-3
1.709000E-7	2.019772E-3
1.710000E-7	1.692568E-3
1.711000E-7	4.180140E-4
1.712000E-7	-1.935662E-4
1.713000E-7	-7.878787E-5
1.714000E-7	-2.363940E-4
1.715000E-7	-1.079107E-4
1.716000E-7	3.306454E-4
1.717000E-7	1.161504E-3
1.718000E-7	2.324705E-3
1.719000E-7	3.671210E-3
1.720000E-7	2.879753E-3
1.721000E-7	2.201362E-3
1.722000E-7	2.304148E-3
1.723000E-7	3.448506E-3
1.724000E-7	1.600060E-3
1.725000E-7	1.413331E-3
1.726000E-7	2.175802E-4
1.727000E-7	-7.074992E-4
1.728000E-7	-5.498931E-4
1.729000E-7	8.909691E-5
1.730000E-7	-2.860742E-4
1.731000E-7	6.647019E-4
1.732000E-7	1.170069E-3
1.733000E-7	2.878040E-3
1.734000E-7	3.650653E-3
1.735000E-7	3.179547E-3
1.736000E-7	2.513148E-3
1.737000E-7	2.682745E-3
1.738000E-7	2.477172E-3
1.739000E-7	1.233454E-3
1.740000E-7	6.784068E-4
1.741000E-7	-4.077050E-4
1.742000E-7	-1.832876E-4
1.743000E-7	8.308735E-4
1.744000E-7	1.267853E-4
1.745000E-7	-5.137811E-5
1.746000E-7	1.024455E-3
1.747000E-7	2.602229E-3
1.748000E-7	3.511891E-3
1.749000E-7	3.654079E-3
1.750000E-7	2.251042E-3
1.751000E-7	2.381238E-3
1.752000E-7	1.565798E-3
1.753000E-7	1.118676E-3
1.754000E-7	1.062143E-3
1.755000E-7	2.535555E-4
1.756000E-7	-5.139178E-4
1.757000E-7	-1.003867E-3
1.758000E-7	-1.250418E-4
1.759000E-7	1.816048E-4
1.760000E-7	4.265796E-4
1.761000E-7	8.651357E-4
1.762000E-7	2.288730E-3
1.763000E-7	3.630095E-3
1.764000E-7	2.835212E-3
1.765000E-7	1.990649E-3
1.766000E-7	3.032220E-3
1.767000E-7	2.151681E-3
1.768000E-7	1.176922E-3
1.769000E-7	-2.363940E-4
1.770000E-7	-3.511724E-4
1.771000E-7	-5.396145E-4
1.772000E-7	1.610475E-4
1.773000E-7	-3.254757E-4
1.774000E-7	-6.508299E-5
1.775000E-7	1.713125E-3
1.776000E-7	2.437771E-3
1.777000E-7	2.424066E-3
1.778000E-7	2.398369E-3
1.779000E-7	2.141403E-3
1.780000E-7	2.520000E-3
1.781000E-7	1.976944E-3
1.782000E-7	1.725117E-3
1.783000E-7	1.041586E-3
1.784000E-7	3.118012E-4
1.785000E-7	3.940305E-4
1.786000E-7	-1.524516E-4
1.787000E-7	6.168715E-5
1.788000E-7	-1.867138E-4
1.789000E-7	5.464973E-4
1.790000E-7	1.612052E-3
1.791000E-7	2.600516E-3
1.792000E-7	2.251042E-3
1.793000E-7	1.536675E-3
1.794000E-7	2.508008E-3
1.795000E-7	2.494303E-3
1.796000E-7	2.016346E-3
1.797000E-7	8.993979E-4
1.798000E-7	-1.867138E-4
1.799000E-7	-1.072392E-3
1.800000E-7	-7.777368E-4
1.801000E-7	6.475708E-4
1.802000E-7	3.186536E-4
1.803000E-7	1.074135E-3
1.804000E-7	1.716551E-3
1.805000E-7	2.949991E-3
1.806000E-7	3.612964E-3
1.807000E-7	2.917442E-3
1.808000E-7	2.201362E-3
1.809000E-7	2.127698E-3
1.810000E-7	1.966665E-3
1.811000E-7	7.554967E-4
1.812000E-7	1.033021E-3
1.813000E-7	4.608418E-4
1.814000E-7	-4.452567E-5
1.815000E-7	-2.860742E-4
1.816000E-7	-5.480433E-5
1.817000E-7	5.276531E-4
1.818000E-7	1.091266E-3
1.819000E-7	1.630896E-3
1.820000E-7	2.790671E-3
1.821000E-7	3.085326E-3
1.822000E-7	2.203075E-3
1.823000E-7	2.622787E-3
1.824000E-7	2.651909E-3
1.825000E-7	1.180348E-3
1.826000E-7	1.416757E-3
1.827000E-7	1.696131E-4
1.828000E-7	-8.702447E-4
1.829000E-7	5.140849E-5
1.830000E-7	-3.134839E-4
1.831000E-7	-3.785821E-4
1.832000E-7	6.338659E-4
1.833000E-7	1.709699E-3
1.834000E-7	3.174408E-3
1.835000E-7	2.994531E-3
1.836000E-7	2.317853E-3
1.837000E-7	2.465180E-3
1.838000E-7	2.484025E-3
1.839000E-7	2.499443E-3
1.840000E-7	2.057460E-3
1.841000E-7	5.807595E-4
1.842000E-7	2.571184E-5
1.843000E-7	-8.564031E-5
1.844000E-7	7.367892E-5
1.845000E-7	5.327924E-4
1.846000E-7	5.704808E-4
1.847000E-7	1.026168E-3
1.848000E-7	2.412074E-3
1.849000E-7	4.003553E-3
1.850000E-7	3.028794E-3
1.851000E-7	2.393230E-3
1.852000E-7	2.718721E-3
1.853000E-7	2.603942E-3
1.854000E-7	1.754240E-3
1.855000E-7	1.103258E-3
1.856000E-7	-4.368279E-4
1.857000E-7	-3.751559E-4
1.858000E-7	-3.408937E-4
1.859000E-7	-2.586644E-4
1.860000E-7	1.336378E-4
1.861000E-7	1.048439E-3
1.862000E-7	1.348233E-3
1.863000E-7	3.107597E-3
1.864000E-7	3.328588E-3
1.865000E-7	1.944395E-3
1.866000E-7	2.030051E-3
1.867000E-7	2.992818E-3
1.868000E-7	1.608625E-3
1.869000E-7	8.205949E-4
1.870000E-7	3.734732E-4
1.871000E-7	2.655472E-4
1.872000E-7	-6.336988E-5
1.873000E-7	1.308831E-3
1.874000E-7	-1.010583E-4
1.875000E-7	3.666207E-4
1.876000E-7	9.148159E-4
1.877000E-7	2.980827E-3
1.878000E-7	3.280621E-3
1.879000E-7	3.275482E-3
1.880000E-7	2.478885E-3
1.881000E-7	2.807802E-3
1.882000E-7	2.561115E-3
1.883000E-7	1.401339E-3
1.884000E-7	1.336378E-4
1.885000E-7	-3.169102E-4
1.886000E-7	-6.852288E-4
1.887000E-7	5.826093E-5
1.888000E-7	-1.711591E-5
1.889000E-7	4.077354E-4
1.890000E-7	1.026168E-3
1.891000E-7	1.961526E-3
1.892000E-7	3.004810E-3
1.893000E-7	4.025824E-3
1.894000E-7	2.295583E-3
1.895000E-7	2.254468E-3
1.896000E-7	2.681032E-3
1.897000E-7	2.103714E-3
1.898000E-7	8.205949E-4
1.899000E-7	-7.366221E-4
1.900000E-7	-9.199249E-4
1.901000E-7	-5.790160E-4
1.902000E-7	-4.368279E-4
1.903000E-7	1.130804E-4
1.904000E-7	7.674885E-4
1.905000E-7	1.685715E-3
1.906000E-7	2.970548E-3
1.907000E-7	3.210383E-3
1.908000E-7	2.948278E-3
1.909000E-7	2.173952E-3
1.910000E-7	2.415500E-3
1.911000E-7	1.793641E-3
1.912000E-7	1.159791E-3
1.913000E-7	1.610475E-4
1.914000E-7	-3.220495E-4
1.915000E-7	-6.578191E-4
1.916000E-7	1.696131E-4
1.917000E-7	-1.850007E-4
1.918000E-7	-5.994366E-5
1.919000E-7	1.343093E-3
1.920000E-7	2.059173E-3
1.921000E-7	2.936286E-3
1.922000E-7	2.715295E-3
1.923000E-7	1.684002E-3
1.924000E-7	2.076305E-3
1.925000E-7	1.925551E-3
1.926000E-7	1.642888E-3
1.927000E-7	3.768994E-4
1.928000E-7	-1.695827E-4
1.929000E-7	-9.182118E-4
1.930000E-7	5.826093E-5
1.931000E-7	7.126690E-4
1.932000E-7	-1.730089E-4
1.933000E-7	1.238594E-3
1.934000E-7	1.202618E-3
1.935000E-7	2.802663E-3
1.936000E-7	3.600972E-3
1.937000E-7	2.872901E-3
1.938000E-7	2.203075E-3
1.939000E-7	2.852343E-3
1.940000E-7	2.261320E-3
1.941000E-7	1.303692E-3
1.942000E-7	1.113673E-4
1.943000E-7	-4.436803E-4
1.944000E-7	-1.867138E-4
1.945000E-7	6.664150E-4
1.946000E-7	6.150217E-4
1.947000E-7	1.009037E-3
1.948000E-7	1.074135E-3
1.949000E-7	1.742248E-3
1.950000E-7	2.511434E-3
1.951000E-7	2.542270E-3
1.952000E-7	2.216780E-3
1.953000E-7	3.366276E-3
1.954000E-7	2.254468E-3
1.955000E-7	1.408192E-3
1.956000E-7	8.634226E-4
1.957000E-7	-4.556721E-4
1.958000E-7	-5.309122E-5
1.959000E-7	4.300058E-4
1.960000E-7	3.152274E-4
1.961000E-7	-5.156309E-4
1.962000E-7	8.959717E-4
1.963000E-7	2.496016E-3
1.964000E-7	2.975687E-3
1.965000E-7	3.201818E-3
1.966000E-7	2.413787E-3
1.967000E-7	3.100744E-3
1.968000E-7	2.573106E-3
1.969000E-7	1.486995E-3
1.970000E-7	5.053826E-4
1.971000E-7	-1.181894E-4
1.972000E-7	-2.209760E-4
1.973000E-7	-3.100577E-4
1.974000E-7	8.565702E-4
1.975000E-7	2.364244E-4
1.976000E-7	8.034638E-4
1.977000E-7	1.533249E-3
1.978000E-7	2.768401E-3
1.979000E-7	3.025367E-3
1.980000E-7	2.818081E-3
1.981000E-7	2.386377E-3
1.982000E-7	2.112280E-3
1.983000E-7	1.951247E-3
1.984000E-7	1.517831E-3
1.985000E-7	3.203668E-4
1.986000E-7	-4.813687E-4
1.987000E-7	-6.012864E-4
1.988000E-7	7.881825E-5
1.989000E-7	-4.882212E-4
1.990000E-7	1.387771E-4
1.991000E-7	4.728335E-4
1.992000E-7	2.521713E-3
1.993000E-7	3.547866E-3
1.994000E-7	3.407391E-3
1.995000E-7	1.471577E-3
1.996000E-7	1.946108E-3
1.997000E-7	2.728999E-3
1.998000E-7	1.687429E-3
1.999000E-7	6.681281E-4
2.000000E-7	-3.563117E-4
2.001000E-7	-7.434746E-4
