Study Name	Tungsten_Calibration
Sample Name	2024-10-02
Run Name	baseline_10000
Operator	Elena
Date	10/2/2024
Time	14:03
Sign	NEG
Grating Spacing	03.40um
Channel	3
Number Traces	10000
Files in Batch	1
Batch Number	1
dt	100.000001E-12
time stamp (ms)	2:03:51 PM
	
Time	Amplitude
0.000000E+0	1.647850E-3
1.000000E-10	1.224751E-3
2.000000E-10	5.978112E-4
3.000000E-10	5.755428E-4
4.000000E-10	6.577644E-4
5.000000E-10	8.975774E-4
6.000000E-10	6.252184E-4
7.000000E-10	1.027762E-3
8.000000E-10	1.606739E-3
9.000000E-10	1.956181E-3
1.000000E-9	2.041828E-3
1.100000E-9	1.978449E-3
1.200000E-9	2.029837E-3
1.300000E-9	1.889376E-3
1.400000E-9	1.942477E-3
1.500000E-9	1.505675E-3
1.600000E-9	7.091529E-4
1.700000E-9	3.888313E-4
1.800000E-9	7.142918E-4
1.900000E-9	5.173025E-4
2.000000E-9	5.361450E-4
2.100000E-9	7.382731E-4
2.200000E-9	1.219612E-3
2.300000E-9	1.459425E-3
2.400000E-9	1.819145E-3
2.500000E-9	2.225114E-3
2.600000E-9	2.079513E-3
2.700000E-9	1.987014E-3
2.800000E-9	1.861968E-3
2.900000E-9	1.464564E-3
3.000000E-9	8.821609E-4
3.100000E-9	4.110996E-4
3.200000E-9	6.235054E-4
3.300000E-9	3.939701E-4
3.400000E-9	4.367939E-4
3.500000E-9	7.228565E-4
3.600000E-9	1.116835E-3
3.700000E-9	1.324102E-3
3.800000E-9	1.822570E-3
3.900000E-9	1.990440E-3
4.000000E-9	2.009282E-3
4.100000E-9	1.755765E-3
4.200000E-9	1.904792E-3
4.300000E-9	1.851691E-3
4.400000E-9	1.248732E-3
4.500000E-9	6.971623E-4
4.600000E-9	8.941515E-4
4.700000E-9	9.626695E-4
4.800000E-9	8.821609E-4
4.900000E-9	7.896616E-4
5.000000E-9	9.472530E-4
5.100000E-9	1.375490E-3
5.200000E-9	1.769469E-3
5.300000E-9	2.231966E-3
5.400000E-9	1.911644E-3
5.500000E-9	1.976736E-3
5.600000E-9	2.021273E-3
5.700000E-9	2.024699E-3
5.800000E-9	1.168224E-3
5.900000E-9	8.239206E-4
6.000000E-9	4.693399E-4
6.100000E-9	7.160047E-4
6.200000E-9	5.429968E-4
6.300000E-9	5.755428E-4
6.400000E-9	1.163085E-3
6.500000E-9	1.269288E-3
6.600000E-9	1.462851E-3
6.700000E-9	1.843126E-3
6.800000E-9	2.209697E-3
6.900000E-9	2.031550E-3
7.000000E-9	1.911644E-3
7.100000E-9	2.195994E-3
7.200000E-9	1.791737E-3
7.300000E-9	1.329241E-3
7.400000E-9	7.622544E-4
7.500000E-9	5.755428E-4
7.600000E-9	7.554026E-4
7.700000E-9	7.605414E-4
7.800000E-9	5.001730E-4
7.900000E-9	9.095681E-4
8.000000E-9	1.135677E-3
8.100000E-9	1.747201E-3
8.200000E-9	2.170299E-3
8.300000E-9	2.076087E-3
8.400000E-9	1.863681E-3
8.500000E-9	1.942477E-3
8.600000E-9	1.726645E-3
8.700000E-9	1.260723E-3
8.800000E-9	7.982263E-4
8.900000E-9	7.211436E-4
9.000000E-9	7.776709E-4
9.100000E-9	5.498486E-4
9.200000E-9	5.224414E-4
9.300000E-9	7.725321E-4
9.400000E-9	1.235029E-3
9.500000E-9	1.718081E-3
9.600000E-9	1.706090E-3
9.700000E-9	1.762617E-3
9.800000E-9	1.956181E-3
9.900000E-9	1.839700E-3
1.000000E-8	1.831135E-3
1.010000E-8	1.579332E-3
1.020000E-8	1.154520E-3
1.030000E-8	7.262824E-4
1.040000E-8	7.759580E-4
1.050000E-8	6.183666E-4
1.060000E-8	5.361450E-4
1.070000E-8	7.536896E-4
1.080000E-8	1.214473E-3
1.090000E-8	1.404611E-3
1.100000E-8	1.892801E-3
1.110000E-8	2.254234E-3
1.120000E-8	1.873959E-3
1.130000E-8	1.867107E-3
1.140000E-8	2.040115E-3
1.150000E-8	1.714655E-3
1.160000E-8	1.130539E-3
1.170000E-8	8.119299E-4
1.180000E-8	4.470716E-4
1.190000E-8	5.395709E-4
1.200000E-8	4.436457E-4
1.210000E-8	7.502637E-4
1.220000E-8	9.181328E-4
1.230000E-8	1.209334E-3
1.240000E-8	1.656414E-3
1.250000E-8	1.925347E-3
1.260000E-8	1.832848E-3
1.270000E-8	1.879098E-3
1.280000E-8	1.873959E-3
1.290000E-8	1.721506E-3
1.300000E-8	1.483406E-3
1.310000E-8	1.014058E-3
1.320000E-8	6.646162E-4
1.330000E-8	6.132277E-4
1.340000E-8	3.648500E-4
1.350000E-8	6.937364E-4
1.360000E-8	7.896616E-4
1.370000E-8	1.055169E-3
1.380000E-8	1.551924E-3
1.390000E-8	1.688960E-3
1.400000E-8	1.913357E-3
1.410000E-8	1.925347E-3
1.420000E-8	2.055532E-3
1.430000E-8	2.089791E-3
1.440000E-8	1.565628E-3
1.450000E-8	1.205908E-3
1.460000E-8	5.978112E-4
1.470000E-8	3.374428E-4
1.480000E-8	3.648500E-4
1.490000E-8	4.590622E-4
1.500000E-8	7.793839E-4
1.510000E-8	1.079150E-3
1.520000E-8	1.317250E-3
1.530000E-8	1.594748E-3
1.540000E-8	2.048680E-3
1.550000E-8	2.050393E-3
1.560000E-8	1.822570E-3
1.570000E-8	1.815719E-3
1.580000E-8	1.656414E-3
1.590000E-8	1.334380E-3
1.600000E-8	8.256335E-4
1.610000E-8	5.858205E-4
1.620000E-8	5.344320E-4
1.630000E-8	3.408687E-4
1.640000E-8	4.265162E-4
1.650000E-8	6.577644E-4
1.660000E-8	9.729472E-4
1.670000E-8	1.560489E-3
1.680000E-8	1.968171E-3
1.690000E-8	1.928773E-3
1.700000E-8	1.790024E-3
1.710000E-8	2.190855E-3
1.720000E-8	2.139466E-3
1.730000E-8	1.817432E-3
1.740000E-8	1.449147E-3
1.750000E-8	6.491997E-4
1.760000E-8	7.691062E-4
1.770000E-8	4.693399E-4
1.780000E-8	4.402198E-4
1.790000E-8	6.629033E-4
1.800000E-8	1.156233E-3
1.810000E-8	1.363500E-3
1.820000E-8	1.673544E-3
1.830000E-8	2.151457E-3
1.840000E-8	2.065809E-3
1.850000E-8	2.033263E-3
1.860000E-8	2.213123E-3
1.870000E-8	1.942477E-3
1.880000E-8	1.318963E-3
1.890000E-8	8.307724E-4
1.900000E-8	5.995241E-4
1.910000E-8	3.888313E-4
1.920000E-8	5.978112E-4
1.930000E-8	6.697551E-4
1.940000E-8	1.036326E-3
1.950000E-8	1.353222E-3
1.960000E-8	1.613591E-3
1.970000E-8	2.040115E-3
1.980000E-8	1.856829E-3
1.990000E-8	1.887663E-3
2.000000E-8	1.791737E-3
2.010000E-8	1.870533E-3
2.020000E-8	1.493684E-3
2.030000E-8	9.455400E-4
2.040000E-8	6.543385E-4
2.050000E-8	6.269313E-4
2.060000E-8	6.594774E-4
2.070000E-8	3.305910E-4
2.080000E-8	7.793839E-4
2.090000E-8	1.224751E-3
2.100000E-8	1.637572E-3
2.110000E-8	1.927060E-3
2.120000E-8	2.180577E-3
2.130000E-8	2.082939E-3
2.140000E-8	2.291919E-3
2.150000E-8	2.050393E-3
2.160000E-8	1.788311E-3
2.170000E-8	1.344657E-3
2.180000E-8	8.204947E-4
2.190000E-8	4.933212E-4
2.200000E-8	4.487845E-4
2.210000E-8	7.605414E-4
2.220000E-8	6.748939E-4
2.230000E-8	8.324853E-4
2.240000E-8	1.330954E-3
2.250000E-8	1.534795E-3
2.260000E-8	2.010995E-3
2.270000E-8	2.082939E-3
2.280000E-8	2.038402E-3
2.290000E-8	2.070948E-3
2.300000E-8	2.076087E-3
2.310000E-8	1.438870E-3
2.320000E-8	7.691062E-4
2.330000E-8	4.248032E-4
2.340000E-8	5.447097E-4
2.350000E-8	5.806817E-4
2.360000E-8	4.847565E-4
2.370000E-8	7.708191E-4
2.380000E-8	1.296695E-3
2.390000E-8	1.459425E-3
2.400000E-8	1.985301E-3
2.410000E-8	2.101781E-3
2.420000E-8	2.267937E-3
2.430000E-8	1.908218E-3
2.440000E-8	2.132614E-3
2.450000E-8	1.497110E-3
2.460000E-8	1.029475E-3
2.470000E-8	6.629033E-4
2.480000E-8	5.087378E-4
2.490000E-8	4.710529E-4
2.500000E-8	4.162385E-4
2.510000E-8	5.310061E-4
2.520000E-8	7.691062E-4
2.530000E-8	1.474842E-3
2.540000E-8	1.721506E-3
2.550000E-8	1.909931E-3
2.560000E-8	2.053819E-3
2.570000E-8	2.206271E-3
2.580000E-8	2.057245E-3
2.590000E-8	1.880811E-3
2.600000E-8	1.145955E-3
2.610000E-8	9.558177E-4
2.620000E-8	5.207284E-4
2.630000E-8	3.477205E-4
2.640000E-8	2.877672E-4
2.650000E-8	7.160047E-4
2.660000E-8	9.489659E-4
2.670000E-8	1.221325E-3
2.680000E-8	1.579332E-3
2.690000E-8	1.942477E-3
2.700000E-8	1.942477E-3
2.710000E-8	1.904792E-3
2.720000E-8	2.067522E-3
2.730000E-8	1.731784E-3
2.740000E-8	1.428592E-3
2.750000E-8	8.684573E-4
2.760000E-8	3.785536E-4
2.770000E-8	4.881824E-4
2.780000E-8	3.991090E-4
2.790000E-8	3.562852E-4
2.800000E-8	6.560515E-4
2.810000E-8	1.151094E-3
2.820000E-8	1.500536E-3
2.830000E-8	1.702664E-3
2.840000E-8	2.022986E-3
2.850000E-8	2.057245E-3
2.860000E-8	1.913357E-3
2.870000E-8	2.144605E-3
2.880000E-8	1.743775E-3
2.890000E-8	1.199057E-3
2.900000E-8	8.085040E-4
2.910000E-8	6.663292E-4
2.920000E-8	6.372090E-4
2.930000E-8	5.412838E-4
2.940000E-8	6.166536E-4
2.950000E-8	8.872997E-4
2.960000E-8	1.399472E-3
2.970000E-8	2.081226E-3
2.980000E-8	2.230253E-3
2.990000E-8	2.161735E-3
3.000000E-8	2.110346E-3
3.010000E-8	2.168586E-3
3.020000E-8	1.918496E-3
3.030000E-8	1.322389E-3
3.040000E-8	9.438271E-4
3.050000E-8	7.485508E-4
3.060000E-8	6.115148E-4
3.070000E-8	5.275802E-4
3.080000E-8	8.838738E-4
3.090000E-8	8.204947E-4
3.100000E-8	1.123687E-3
3.110000E-8	1.644424E-3
3.120000E-8	2.065809E-3
3.130000E-8	2.094930E-3
3.140000E-8	1.887663E-3
3.150000E-8	2.156596E-3
3.160000E-8	2.163448E-3
3.170000E-8	1.783173E-3
3.180000E-8	1.366926E-3
3.190000E-8	9.352623E-4
3.200000E-8	7.810968E-4
3.210000E-8	3.734147E-4
3.220000E-8	5.395709E-4
3.230000E-8	8.136429E-4
3.240000E-8	9.763731E-4
3.250000E-8	1.264149E-3
3.260000E-8	1.663266E-3
3.270000E-8	1.987014E-3
3.280000E-8	1.935625E-3
3.290000E-8	1.906505E-3
3.300000E-8	1.963032E-3
3.310000E-8	2.007569E-3
3.320000E-8	1.229890E-3
3.330000E-8	7.965134E-4
3.340000E-8	8.050781E-4
3.350000E-8	4.487845E-4
3.360000E-8	7.057270E-4
3.370000E-8	9.112810E-4
3.380000E-8	1.051743E-3
3.390000E-8	1.097993E-3
3.400000E-8	1.495397E-3
3.410000E-8	1.848265E-3
3.420000E-8	2.079513E-3
3.430000E-8	2.113772E-3
3.440000E-8	2.005856E-3
3.450000E-8	1.695812E-3
3.460000E-8	1.553637E-3
3.470000E-8	7.194306E-4
3.480000E-8	7.262824E-4
3.490000E-8	5.995241E-4
3.500000E-8	6.389220E-4
3.510000E-8	5.053119E-4
3.520000E-8	8.170688E-4
3.530000E-8	9.438271E-4
3.540000E-8	1.438870E-3
3.550000E-8	1.843126E-3
3.560000E-8	2.045254E-3
3.570000E-8	1.863681E-3
3.580000E-8	2.122337E-3
3.590000E-8	2.089791E-3
3.600000E-8	1.832848E-3
3.610000E-8	1.103131E-3
3.620000E-8	5.978112E-4
3.630000E-8	3.768406E-4
3.640000E-8	3.134615E-4
3.650000E-8	4.607752E-4
3.660000E-8	6.646162E-4
3.670000E-8	8.650314E-4
3.680000E-8	1.372065E-3
3.690000E-8	1.750627E-3
3.700000E-8	1.682109E-3
3.710000E-8	1.980162E-3
3.720000E-8	2.322752E-3
3.730000E-8	2.026412E-3
3.740000E-8	1.724932E-3
3.750000E-8	1.366926E-3
3.760000E-8	9.917897E-4
3.770000E-8	5.241543E-4
3.780000E-8	2.809154E-4
3.790000E-8	1.627219E-4
3.800000E-8	5.686910E-4
3.810000E-8	8.804479E-4
3.820000E-8	1.012345E-3
3.830000E-8	1.363500E-3
3.840000E-8	1.873959E-3
3.850000E-8	2.043541E-3
3.860000E-8	1.865394E-3
3.870000E-8	1.964745E-3
3.880000E-8	1.911644E-3
3.890000E-8	1.541647E-3
3.900000E-8	9.660954E-4
3.910000E-8	9.421141E-4
3.920000E-8	5.241543E-4
3.930000E-8	7.057270E-4
3.940000E-8	5.858205E-4
3.950000E-8	9.284105E-4
3.960000E-8	9.592436E-4
3.970000E-8	1.161372E-3
3.980000E-8	1.639285E-3
3.990000E-8	2.065809E-3
4.000000E-8	1.980162E-3
4.010000E-8	2.045254E-3
4.020000E-8	2.130901E-3
4.030000E-8	1.829422E-3
4.040000E-8	1.125400E-3
4.050000E-8	9.592436E-4
4.060000E-8	7.365601E-4
4.070000E-8	5.755428E-4
4.080000E-8	3.699888E-4
4.090000E-8	5.635522E-4
4.100000E-8	1.022623E-3
4.110000E-8	1.080863E-3
4.120000E-8	1.515952E-3
4.130000E-8	1.992153E-3
4.140000E-8	2.149744E-3
4.150000E-8	1.983588E-3
4.160000E-8	2.177151E-3
4.170000E-8	2.096642E-3
4.180000E-8	1.762617E-3
4.190000E-8	1.265862E-3
4.200000E-8	6.354961E-4
4.210000E-8	6.337831E-4
4.220000E-8	6.200795E-4
4.230000E-8	7.536896E-4
4.240000E-8	6.491997E-4
4.250000E-8	8.838738E-4
4.260000E-8	1.406324E-3
4.270000E-8	1.812293E-3
4.280000E-8	2.108633E-3
4.290000E-8	2.106920E-3
4.300000E-8	2.070948E-3
4.310000E-8	1.911644E-3
4.320000E-8	1.644424E-3
4.330000E-8	1.193918E-3
4.340000E-8	1.161372E-3
4.350000E-8	7.879486E-4
4.360000E-8	6.474867E-4
4.370000E-8	5.224414E-4
4.380000E-8	5.909594E-4
4.390000E-8	1.236742E-3
4.400000E-8	1.315537E-3
4.410000E-8	1.639285E-3
4.420000E-8	2.103494E-3
4.430000E-8	2.187429E-3
4.440000E-8	1.814006E-3
4.450000E-8	2.160022E-3
4.460000E-8	1.884237E-3
4.470000E-8	1.420027E-3
4.480000E-8	9.815120E-4
4.490000E-8	4.265162E-4
4.500000E-8	7.160047E-4
4.510000E-8	6.166536E-4
4.520000E-8	6.080889E-4
4.530000E-8	9.215587E-4
4.540000E-8	1.166511E-3
4.550000E-8	1.541647E-3
4.560000E-8	1.707803E-3
4.570000E-8	1.925347E-3
4.580000E-8	1.742062E-3
4.590000E-8	1.930486E-3
4.600000E-8	1.882524E-3
4.610000E-8	1.572480E-3
4.620000E-8	1.058595E-3
4.630000E-8	7.845227E-4
4.640000E-8	4.350809E-4
4.650000E-8	7.023011E-4
4.660000E-8	4.984601E-4
4.670000E-8	8.547537E-4
4.680000E-8	9.695213E-4
4.690000E-8	1.296695E-3
4.700000E-8	1.766043E-3
4.710000E-8	2.108633E-3
4.720000E-8	2.195994E-3
4.730000E-8	2.036689E-3
4.740000E-8	1.963032E-3
4.750000E-8	2.021273E-3
4.760000E-8	1.781460E-3
4.770000E-8	9.027163E-4
4.780000E-8	3.477205E-4
4.790000E-8	3.991090E-4
4.800000E-8	5.378579E-4
4.810000E-8	4.916083E-4
4.820000E-8	6.354961E-4
4.830000E-8	1.046604E-3
4.840000E-8	1.766043E-3
4.850000E-8	2.000717E-3
4.860000E-8	2.170299E-3
4.870000E-8	2.048680E-3
4.880000E-8	2.112059E-3
4.890000E-8	2.110346E-3
4.900000E-8	1.593035E-3
4.910000E-8	9.935026E-4
4.920000E-8	4.573493E-4
4.930000E-8	7.862357E-4
4.940000E-8	5.858205E-4
4.950000E-8	7.879486E-4
4.960000E-8	8.838738E-4
4.970000E-8	8.718832E-4
4.980000E-8	1.396046E-3
4.990000E-8	1.836274E-3
5.000000E-8	2.117198E-3
5.010000E-8	2.141179E-3
5.020000E-8	1.918496E-3
5.030000E-8	1.894514E-3
5.040000E-8	1.426879E-3
5.050000E-8	9.044292E-4
5.060000E-8	5.121637E-4
5.070000E-8	4.179514E-4
5.080000E-8	2.792025E-4
5.090000E-8	7.554026E-4
5.100000E-8	9.215587E-4
5.110000E-8	9.164199E-4
5.120000E-8	1.156233E-3
5.130000E-8	1.610165E-3
5.140000E-8	1.819145E-3
5.150000E-8	2.177151E-3
5.160000E-8	2.127476E-3
5.170000E-8	2.079513E-3
5.180000E-8	1.925347E-3
5.190000E-8	1.539934E-3
5.200000E-8	9.935026E-4
5.210000E-8	5.943853E-4
5.220000E-8	5.481356E-4
5.230000E-8	5.789687E-4
5.240000E-8	6.217925E-4
5.250000E-8	8.838738E-4
5.260000E-8	1.306972E-3
5.270000E-8	1.570767E-3
5.280000E-8	1.680396E-3
5.290000E-8	2.305622E-3
5.300000E-8	2.077800E-3
5.310000E-8	1.990440E-3
5.320000E-8	2.177151E-3
5.330000E-8	1.906505E-3
5.340000E-8	1.257297E-3
5.350000E-8	7.040141E-4
5.360000E-8	5.909594E-4
5.370000E-8	7.365601E-4
5.380000E-8	5.361450E-4
5.390000E-8	6.851716E-4
5.400000E-8	9.044292E-4
5.410000E-8	1.330954E-3
5.420000E-8	1.868820E-3
5.430000E-8	1.990440E-3
5.440000E-8	1.762617E-3
5.450000E-8	1.836274E-3
5.460000E-8	2.096642E-3
5.470000E-8	1.981875E-3
5.480000E-8	1.425166E-3
5.490000E-8	7.416990E-4
5.500000E-8	6.115148E-4
5.510000E-8	5.892464E-4
5.520000E-8	5.429968E-4
5.530000E-8	4.693399E-4
5.540000E-8	8.290594E-4
5.550000E-8	1.217899E-3
5.560000E-8	1.664979E-3
5.570000E-8	1.921922E-3
5.580000E-8	1.808867E-3
5.590000E-8	2.028124E-3
5.600000E-8	2.101781E-3
5.610000E-8	2.213123E-3
5.620000E-8	1.757478E-3
5.630000E-8	1.118548E-3
5.640000E-8	7.399860E-4
5.650000E-8	7.965134E-4
5.660000E-8	5.755428E-4
5.670000E-8	7.040141E-4
5.680000E-8	6.971623E-4
5.690000E-8	9.232717E-4
5.700000E-8	1.454286E-3
5.710000E-8	1.793450E-3
5.720000E-8	1.957894E-3
5.730000E-8	1.805441E-3
5.740000E-8	1.788311E-3
5.750000E-8	2.016134E-3
5.760000E-8	1.997291E-3
5.770000E-8	1.344657E-3
5.780000E-8	8.581796E-4
5.790000E-8	5.464227E-4
5.800000E-8	5.361450E-4
5.810000E-8	5.841076E-4
5.820000E-8	7.194306E-4
5.830000E-8	8.907256E-4
5.840000E-8	1.121974E-3
5.850000E-8	1.647850E-3
5.860000E-8	1.987014E-3
5.870000E-8	1.949329E-3
5.880000E-8	1.745488E-3
5.890000E-8	1.993865E-3
5.900000E-8	1.880811E-3
5.910000E-8	1.551924E-3
5.920000E-8	9.797990E-4
5.930000E-8	5.823946E-4
5.940000E-8	7.828098E-4
5.950000E-8	2.483694E-4
5.960000E-8	3.066097E-4
5.970000E-8	6.063759E-4
5.980000E-8	1.051743E-3
5.990000E-8	1.678683E-3
6.000000E-8	1.949329E-3
6.010000E-8	2.050393E-3
6.020000E-8	1.889376E-3
6.030000E-8	1.992153E-3
6.040000E-8	2.038402E-3
6.050000E-8	1.863681E-3
6.060000E-8	1.265862E-3
6.070000E-8	8.239206E-4
6.080000E-8	5.104507E-4
6.090000E-8	6.834587E-4
6.100000E-8	7.057270E-4
6.110000E-8	6.800328E-4
6.120000E-8	1.046604E-3
6.130000E-8	1.091141E-3
6.140000E-8	1.825996E-3
6.150000E-8	1.935625E-3
6.160000E-8	2.141179E-3
6.170000E-8	1.829422E-3
6.180000E-8	1.903079E-3
6.190000E-8	1.983588E-3
6.200000E-8	1.467990E-3
6.210000E-8	1.087715E-3
6.220000E-8	7.451249E-4
6.230000E-8	5.395709E-4
6.240000E-8	5.772558E-4
6.250000E-8	6.389220E-4
6.260000E-8	8.222076E-4
6.270000E-8	7.708191E-4
6.280000E-8	1.348083E-3
6.290000E-8	1.769469E-3
6.300000E-8	2.100068E-3
6.310000E-8	1.896227E-3
6.320000E-8	2.106920E-3
6.330000E-8	2.055532E-3
6.340000E-8	1.834561E-3
6.350000E-8	1.145955E-3
6.360000E-8	8.187817E-4
6.370000E-8	5.618392E-4
6.380000E-8	3.648500E-4
6.390000E-8	6.012371E-4
6.400000E-8	7.125788E-4
6.410000E-8	8.256335E-4
6.420000E-8	1.142529E-3
6.430000E-8	1.647850E-3
6.440000E-8	2.151457E-3
6.450000E-8	2.009282E-3
6.460000E-8	1.800302E-3
6.470000E-8	2.017847E-3
6.480000E-8	2.014421E-3
6.490000E-8	1.396046E-3
6.500000E-8	9.969285E-4
6.510000E-8	6.183666E-4
6.520000E-8	3.066097E-4
6.530000E-8	6.697551E-4
6.540000E-8	7.828098E-4
6.550000E-8	1.094567E-3
6.560000E-8	1.087715E-3
6.570000E-8	1.625581E-3
6.580000E-8	2.072661E-3
6.590000E-8	1.973310E-3
6.600000E-8	2.089791E-3
6.610000E-8	1.957894E-3
6.620000E-8	1.790024E-3
6.630000E-8	1.522804E-3
6.640000E-8	1.063734E-3
6.650000E-8	6.766069E-4
6.660000E-8	4.642011E-4
6.670000E-8	3.100356E-4
6.680000E-8	5.995241E-4
6.690000E-8	7.468378E-4
6.700000E-8	1.034613E-3
6.710000E-8	1.526230E-3
6.720000E-8	1.877385E-3
6.730000E-8	1.993865E-3
6.740000E-8	2.012708E-3
6.750000E-8	2.082939E-3
6.760000E-8	2.005856E-3
6.770000E-8	1.469703E-3
6.780000E-8	8.770220E-4
6.790000E-8	8.341983E-4
6.800000E-8	6.509126E-4
6.810000E-8	4.522104E-4
6.820000E-8	4.607752E-4
6.830000E-8	7.571155E-4
6.840000E-8	7.023011E-4
6.850000E-8	8.958645E-4
6.860000E-8	1.856829E-3
6.870000E-8	2.041828E-3
6.880000E-8	1.819145E-3
6.890000E-8	1.957894E-3
6.900000E-8	2.046967E-3
6.910000E-8	1.997291E-3
6.920000E-8	1.575906E-3
6.930000E-8	9.969285E-4
6.940000E-8	5.909594E-4
6.950000E-8	6.903105E-4
6.960000E-8	6.132277E-4
6.970000E-8	7.468378E-4
6.980000E-8	6.269313E-4
6.990000E-8	9.061422E-4
7.000000E-8	1.406324E-3
7.010000E-8	1.925347E-3
7.020000E-8	2.192568E-3
7.030000E-8	1.868820E-3
7.040000E-8	1.863681E-3
7.050000E-8	1.983588E-3
7.060000E-8	1.844839E-3
7.070000E-8	1.075724E-3
7.080000E-8	7.896616E-4
7.090000E-8	6.406349E-4
7.100000E-8	5.892464E-4
7.110000E-8	3.614241E-4
7.120000E-8	7.896616E-4
7.130000E-8	7.639673E-4
7.140000E-8	1.334380E-3
7.150000E-8	1.872246E-3
7.160000E-8	2.096642E-3
7.170000E-8	2.036689E-3
7.180000E-8	2.007569E-3
7.190000E-8	2.202845E-3
7.200000E-8	1.952755E-3
7.210000E-8	1.284704E-3
7.220000E-8	9.729472E-4
7.230000E-8	6.440608E-4
7.240000E-8	2.672118E-4
7.250000E-8	5.532745E-4
7.260000E-8	6.269313E-4
7.270000E-8	8.033652E-4
7.280000E-8	1.262436E-3
7.290000E-8	1.774608E-3
7.300000E-8	2.149744E-3
7.310000E-8	2.165160E-3
7.320000E-8	2.120624E-3
7.330000E-8	2.249095E-3
7.340000E-8	1.942477E-3
7.350000E-8	1.634146E-3
7.360000E-8	1.188779E-3
7.370000E-8	7.314213E-4
7.380000E-8	3.802665E-4
7.390000E-8	4.590622E-4
7.400000E-8	6.509126E-4
7.410000E-8	8.170688E-4
7.420000E-8	1.062021E-3
7.430000E-8	1.438870E-3
7.440000E-8	1.971597E-3
7.450000E-8	2.086365E-3
7.460000E-8	1.952755E-3
7.470000E-8	1.819145E-3
7.480000E-8	2.101781E-3
7.490000E-8	1.843126E-3
7.500000E-8	1.394333E-3
7.510000E-8	9.592436E-4
7.520000E-8	5.378579E-4
7.530000E-8	4.967471E-4
7.540000E-8	3.168874E-4
7.550000E-8	7.331342E-4
7.560000E-8	1.041465E-3
7.570000E-8	1.223038E-3
7.580000E-8	1.832848E-3
7.590000E-8	2.230253E-3
7.600000E-8	2.334743E-3
7.610000E-8	1.868820E-3
7.620000E-8	2.034976E-3
7.630000E-8	1.786599E-3
7.640000E-8	1.264149E-3
7.650000E-8	9.266976E-4
7.660000E-8	6.269313E-4
7.670000E-8	6.903105E-4
7.680000E-8	4.436457E-4
7.690000E-8	7.057270E-4
7.700000E-8	7.023011E-4
7.710000E-8	1.096280E-3
7.720000E-8	1.341231E-3
7.730000E-8	1.617016E-3
7.740000E-8	1.951042E-3
7.750000E-8	1.860255E-3
7.760000E-8	1.745488E-3
7.770000E-8	1.899653E-3
7.780000E-8	1.750627E-3
7.790000E-8	9.900767E-4
7.800000E-8	6.766069E-4
7.810000E-8	5.635522E-4
7.820000E-8	6.817457E-4
7.830000E-8	4.676270E-4
7.840000E-8	5.669781E-4
7.850000E-8	8.479019E-4
7.860000E-8	9.129940E-4
7.870000E-8	1.551924E-3
7.880000E-8	2.151457E-3
7.890000E-8	2.110346E-3
7.900000E-8	1.772895E-3
7.910000E-8	2.148031E-3
7.920000E-8	1.945903E-3
7.930000E-8	1.449147E-3
7.940000E-8	1.154520E-3
7.950000E-8	6.354961E-4
7.960000E-8	5.429968E-4
7.970000E-8	4.933212E-4
7.980000E-8	8.941515E-4
7.990000E-8	1.130539E-3
8.000000E-8	1.241880E-3
8.010000E-8	1.545073E-3
8.020000E-8	2.041828E-3
8.030000E-8	2.038402E-3
8.040000E-8	2.076087E-3
8.050000E-8	1.945903E-3
8.060000E-8	2.064096E-3
8.070000E-8	1.786599E-3
8.080000E-8	8.941515E-4
8.090000E-8	7.091529E-4
8.100000E-8	4.230903E-4
8.110000E-8	6.217925E-4
8.120000E-8	6.988752E-4
8.130000E-8	8.598925E-4
8.140000E-8	1.259010E-3
8.150000E-8	1.490258E-3
8.160000E-8	1.707803E-3
8.170000E-8	1.807154E-3
8.180000E-8	1.711229E-3
8.190000E-8	1.764330E-3
8.200000E-8	1.959606E-3
8.210000E-8	1.695812E-3
8.220000E-8	1.163085E-3
8.230000E-8	8.496148E-4
8.240000E-8	8.324853E-4
8.250000E-8	8.273465E-4
8.260000E-8	5.310061E-4
8.270000E-8	8.256335E-4
8.280000E-8	1.091141E-3
8.290000E-8	1.515952E-3
8.300000E-8	1.707803E-3
8.310000E-8	2.130901E-3
8.320000E-8	2.077800E-3
8.330000E-8	2.101781E-3
8.340000E-8	2.031550E-3
8.350000E-8	1.887663E-3
8.360000E-8	1.687247E-3
8.370000E-8	1.130539E-3
8.380000E-8	6.149407E-4
8.390000E-8	5.669781E-4
8.400000E-8	6.406349E-4
8.410000E-8	5.258673E-4
8.420000E-8	9.935026E-4
8.430000E-8	9.866508E-4
8.440000E-8	1.488545E-3
8.450000E-8	1.882524E-3
8.460000E-8	2.148031E-3
8.470000E-8	2.024699E-3
8.480000E-8	2.089791E-3
8.490000E-8	1.993865E-3
8.500000E-8	1.945903E-3
8.510000E-8	1.204195E-3
8.520000E-8	5.532745E-4
8.530000E-8	7.279954E-4
8.540000E-8	6.166536E-4
8.550000E-8	6.851716E-4
8.560000E-8	7.262824E-4
8.570000E-8	1.012345E-3
8.580000E-8	1.092854E-3
8.590000E-8	1.676970E-3
8.600000E-8	2.118911E-3
8.610000E-8	2.043541E-3
8.620000E-8	1.855117E-3
8.630000E-8	2.218262E-3
8.640000E-8	1.980162E-3
8.650000E-8	1.546785E-3
8.660000E-8	9.986415E-4
8.670000E-8	7.211436E-4
8.680000E-8	7.262824E-4
8.690000E-8	9.095681E-4
8.700000E-8	8.359112E-4
8.710000E-8	8.701702E-4
8.720000E-8	1.168224E-3
8.730000E-8	1.512526E-3
8.740000E-8	1.858542E-3
8.750000E-8	2.144605E-3
8.760000E-8	1.807154E-3
8.770000E-8	2.101781E-3
8.780000E-8	2.139466E-3
8.790000E-8	1.594748E-3
8.800000E-8	1.058595E-3
8.810000E-8	7.896616E-4
8.820000E-8	6.423479E-4
8.830000E-8	4.813306E-4
8.840000E-8	5.601263E-4
8.850000E-8	8.427630E-4
8.860000E-8	7.896616E-4
8.870000E-8	1.598174E-3
8.880000E-8	1.993865E-3
8.890000E-8	2.160022E-3
8.900000E-8	2.238817E-3
8.910000E-8	2.000717E-3
8.920000E-8	1.928773E-3
8.930000E-8	1.714655E-3
8.940000E-8	1.584470E-3
8.950000E-8	9.095681E-4
8.960000E-8	4.350809E-4
8.970000E-8	4.402198E-4
8.980000E-8	7.314213E-4
8.990000E-8	6.166536E-4
9.000000E-8	6.868846E-4
9.010000E-8	1.062021E-3
9.020000E-8	1.541647E-3
9.030000E-8	2.050393E-3
9.040000E-8	2.026412E-3
9.050000E-8	2.053819E-3
9.060000E-8	1.978449E-3
9.070000E-8	1.997291E-3
9.080000E-8	1.640998E-3
9.090000E-8	1.274426E-3
9.100000E-8	7.279954E-4
9.110000E-8	7.485508E-4
9.120000E-8	6.046630E-4
9.130000E-8	7.759580E-4
9.140000E-8	5.892464E-4
9.150000E-8	9.489659E-4
9.160000E-8	1.344657E-3
9.170000E-8	1.933912E-3
9.180000E-8	2.156596E-3
9.190000E-8	2.076087E-3
9.200000E-8	1.980162E-3
9.210000E-8	1.868820E-3
9.220000E-8	1.668405E-3
9.230000E-8	1.276139E-3
9.240000E-8	1.113409E-3
9.250000E-8	6.731810E-4
9.260000E-8	4.967471E-4
9.270000E-8	3.699888E-4
9.280000E-8	5.943853E-4
9.290000E-8	1.106557E-3
9.300000E-8	1.324102E-3
9.310000E-8	1.735210E-3
9.320000E-8	2.012708E-3
9.330000E-8	2.182290E-3
9.340000E-8	1.824283E-3
9.350000E-8	2.077800E-3
9.360000E-8	2.199419E-3
9.370000E-8	1.555350E-3
9.380000E-8	1.123687E-3
9.390000E-8	6.166536E-4
9.400000E-8	9.061422E-4
9.410000E-8	7.879486E-4
9.420000E-8	3.528593E-4
9.430000E-8	5.635522E-4
9.440000E-8	1.175075E-3
9.450000E-8	1.414888E-3
9.460000E-8	1.844839E-3
9.470000E-8	2.266225E-3
9.480000E-8	1.978449E-3
9.490000E-8	1.887663E-3
9.500000E-8	2.132614E-3
9.510000E-8	1.572480E-3
9.520000E-8	1.048317E-3
9.530000E-8	7.228565E-4
9.540000E-8	6.354961E-4
9.550000E-8	6.423479E-4
9.560000E-8	5.121637E-4
9.570000E-8	7.691062E-4
9.580000E-8	9.815120E-4
9.590000E-8	1.455999E-3
9.600000E-8	1.771182E-3
9.610000E-8	2.418677E-3
9.620000E-8	2.240530E-3
9.630000E-8	1.993865E-3
9.640000E-8	2.009282E-3
9.650000E-8	1.687247E-3
9.660000E-8	1.517665E-3
9.670000E-8	8.530407E-4
9.680000E-8	5.515615E-4
9.690000E-8	3.425816E-4
9.700000E-8	5.104507E-4
9.710000E-8	5.241543E-4
9.720000E-8	7.245695E-4
9.730000E-8	1.130539E-3
9.740000E-8	1.639285E-3
9.750000E-8	1.885950E-3
9.760000E-8	2.233678E-3
9.770000E-8	1.861968E-3
9.780000E-8	1.887663E-3
9.790000E-8	1.796876E-3
9.800000E-8	1.712942E-3
9.810000E-8	1.133965E-3
9.820000E-8	7.982263E-4
9.830000E-8	8.239206E-4
9.840000E-8	6.098018E-4
9.850000E-8	6.132277E-4
9.860000E-8	6.988752E-4
9.870000E-8	1.147668E-3
9.880000E-8	1.442296E-3
9.890000E-8	1.839700E-3
9.900000E-8	2.033263E-3
9.910000E-8	1.961319E-3
9.920000E-8	1.810580E-3
9.930000E-8	1.968171E-3
9.940000E-8	1.659840E-3
9.950000E-8	1.262436E-3
9.960000E-8	8.855868E-4
9.970000E-8	8.050781E-4
9.980000E-8	5.310061E-4
9.990000E-8	2.843413E-4
1.000000E-7	4.693399E-4
1.001000E-7	7.382731E-4
1.002000E-7	1.257297E-3
1.003000E-7	1.997291E-3
1.004000E-7	2.267937E-3
1.005000E-7	2.309048E-3
1.006000E-7	2.161735E-3
1.007000E-7	2.154883E-3
1.008000E-7	1.952755E-3
1.009000E-7	1.541647E-3
1.010000E-7	1.188779E-3
1.011000E-7	6.372090E-4
1.012000E-7	5.412838E-4
1.013000E-7	4.367939E-4
1.014000E-7	6.098018E-4
1.015000E-7	8.290594E-4
1.016000E-7	9.746602E-4
1.017000E-7	1.507388E-3
1.018000E-7	1.889376E-3
1.019000E-7	2.209697E-3
1.020000E-7	2.031550E-3
1.021000E-7	1.819145E-3
1.022000E-7	1.743775E-3
1.023000E-7	1.707803E-3
1.024000E-7	1.274426E-3
1.025000E-7	8.924386E-4
1.026000E-7	4.333680E-4
1.027000E-7	6.971623E-4
1.028000E-7	6.543385E-4
1.029000E-7	8.804479E-4
1.030000E-7	1.019197E-3
1.031000E-7	1.565628E-3
1.032000E-7	1.812293E-3
1.033000E-7	2.038402E-3
1.034000E-7	2.069235E-3
1.035000E-7	1.999004E-3
1.036000E-7	1.873959E-3
1.037000E-7	1.733497E-3
1.038000E-7	1.593035E-3
1.039000E-7	9.780861E-4
1.040000E-7	6.646162E-4
1.041000E-7	6.663292E-4
1.042000E-7	5.258673E-4
1.043000E-7	3.905442E-4
1.044000E-7	5.738299E-4
1.045000E-7	1.103131E-3
1.046000E-7	1.467990E-3
1.047000E-7	2.106920E-3
1.048000E-7	2.060671E-3
1.049000E-7	2.062383E-3
1.050000E-7	2.055532E-3
1.051000E-7	2.072661E-3
1.052000E-7	1.786599E-3
1.053000E-7	1.303547E-3
1.054000E-7	1.127113E-3
1.055000E-7	6.954493E-4
1.056000E-7	5.053119E-4
1.057000E-7	4.162385E-4
1.058000E-7	7.742450E-4
1.059000E-7	9.198458E-4
1.060000E-7	1.380629E-3
1.061000E-7	1.863681E-3
1.062000E-7	2.153170E-3
1.063000E-7	2.106920E-3
1.064000E-7	1.836274E-3
1.065000E-7	2.036689E-3
1.066000E-7	1.632433E-3
1.067000E-7	1.163085E-3
1.068000E-7	1.053456E-3
1.069000E-7	7.519767E-4
1.070000E-7	6.354961E-4
1.071000E-7	5.138766E-4
1.072000E-7	5.481356E-4
1.073000E-7	8.890127E-4
1.074000E-7	1.565628E-3
1.075000E-7	1.916783E-3
1.076000E-7	1.841413E-3
1.077000E-7	1.860255E-3
1.078000E-7	1.932199E-3
1.079000E-7	2.146318E-3
1.080000E-7	2.235391E-3
1.081000E-7	1.591322E-3
1.082000E-7	1.044891E-3
1.083000E-7	9.746602E-4
1.084000E-7	8.941515E-4
1.085000E-7	6.937364E-4
1.086000E-7	5.481356E-4
1.087000E-7	4.453586E-4
1.088000E-7	9.643825E-4
1.089000E-7	1.694099E-3
1.090000E-7	1.880811E-3
1.091000E-7	2.079513E-3
1.092000E-7	2.182290E-3
1.093000E-7	2.046967E-3
1.094000E-7	2.160022E-3
1.095000E-7	1.745488E-3
1.096000E-7	1.291556E-3
1.097000E-7	6.800328E-4
1.098000E-7	6.286443E-4
1.099000E-7	5.344320E-4
1.100000E-7	3.494334E-4
1.101000E-7	8.204947E-4
1.102000E-7	1.187066E-3
1.103000E-7	1.380629E-3
1.104000E-7	1.719793E-3
1.105000E-7	2.033263E-3
1.106000E-7	2.288493E-3
1.107000E-7	2.053819E-3
1.108000E-7	1.928773E-3
1.109000E-7	1.714655E-3
1.110000E-7	1.392620E-3
1.111000E-7	9.883638E-4
1.112000E-7	7.245695E-4
1.113000E-7	6.988752E-4
1.114000E-7	4.847565E-4
1.115000E-7	6.149407E-4
1.116000E-7	6.200795E-4
1.117000E-7	1.209334E-3
1.118000E-7	1.545073E-3
1.119000E-7	1.805441E-3
1.120000E-7	1.961319E-3
1.121000E-7	1.932199E-3
1.122000E-7	2.004143E-3
1.123000E-7	1.995578E-3
1.124000E-7	1.601600E-3
1.125000E-7	1.137390E-3
1.126000E-7	8.204947E-4
1.127000E-7	6.954493E-4
1.128000E-7	4.402198E-4
1.129000E-7	4.350809E-4
1.130000E-7	4.453586E-4
1.131000E-7	1.096280E-3
1.132000E-7	1.560489E-3
1.133000E-7	1.676970E-3
1.134000E-7	1.889376E-3
1.135000E-7	2.029837E-3
1.136000E-7	2.069235E-3
1.137000E-7	2.105207E-3
1.138000E-7	1.659840E-3
1.139000E-7	1.223038E-3
1.140000E-7	7.262824E-4
1.141000E-7	3.648500E-4
1.142000E-7	3.562852E-4
1.143000E-7	4.162385E-4
1.144000E-7	9.506789E-4
1.145000E-7	9.712343E-4
1.146000E-7	1.272713E-3
1.147000E-7	1.807154E-3
1.148000E-7	1.968171E-3
1.149000E-7	2.197707E-3
1.150000E-7	1.812293E-3
1.151000E-7	2.098355E-3
1.152000E-7	1.997291E-3
1.153000E-7	1.286417E-3
1.154000E-7	8.393371E-4
1.155000E-7	6.474867E-4
1.156000E-7	7.228565E-4
1.157000E-7	7.194306E-4
1.158000E-7	5.567004E-4
1.159000E-7	6.098018E-4
1.160000E-7	8.461889E-4
1.161000E-7	1.577619E-3
1.162000E-7	1.825996E-3
1.163000E-7	1.906505E-3
1.164000E-7	2.148031E-3
1.165000E-7	1.935625E-3
1.166000E-7	2.053819E-3
1.167000E-7	1.519378E-3
1.168000E-7	1.096280E-3
1.169000E-7	6.920234E-4
1.170000E-7	4.128126E-4
1.171000E-7	5.618392E-4
1.172000E-7	2.706377E-4
1.173000E-7	6.235054E-4
1.174000E-7	1.096280E-3
1.175000E-7	1.248732E-3
1.176000E-7	1.341231E-3
1.177000E-7	2.221688E-3
1.178000E-7	2.086365E-3
1.179000E-7	2.004143E-3
1.180000E-7	2.177151E-3
1.181000E-7	2.118911E-3
1.182000E-7	1.637572E-3
1.183000E-7	8.479019E-4
1.184000E-7	5.652651E-4
1.185000E-7	6.834587E-4
1.186000E-7	4.556363E-4
1.187000E-7	5.464227E-4
1.188000E-7	6.680421E-4
1.189000E-7	1.089428E-3
1.190000E-7	1.774608E-3
1.191000E-7	2.243956E-3
1.192000E-7	2.206271E-3
1.193000E-7	1.916783E-3
1.194000E-7	2.043541E-3
1.195000E-7	1.774608E-3
1.196000E-7	1.625581E-3
1.197000E-7	9.917897E-4
1.198000E-7	4.419327E-4
1.199000E-7	4.881824E-4
1.200000E-7	2.997579E-4
1.201000E-7	5.652651E-4
1.202000E-7	6.748939E-4
1.203000E-7	1.259010E-3
1.204000E-7	1.380629E-3
1.205000E-7	1.935625E-3
1.206000E-7	2.156596E-3
1.207000E-7	1.870533E-3
1.208000E-7	1.887663E-3
1.209000E-7	1.983588E-3
1.210000E-7	1.697525E-3
1.211000E-7	1.377203E-3
1.212000E-7	7.502637E-4
1.213000E-7	5.018860E-4
1.214000E-7	5.721169E-4
1.215000E-7	4.042478E-4
1.216000E-7	5.584133E-4
1.217000E-7	7.622544E-4
1.218000E-7	1.315537E-3
1.219000E-7	1.778034E-3
1.220000E-7	2.089791E-3
1.221000E-7	2.060671E-3
1.222000E-7	1.932199E-3
1.223000E-7	1.939051E-3
1.224000E-7	1.875672E-3
1.225000E-7	1.634146E-3
1.226000E-7	1.125400E-3
1.227000E-7	8.187817E-4
1.228000E-7	8.050781E-4
1.229000E-7	5.378579E-4
1.230000E-7	4.539234E-4
1.231000E-7	7.793839E-4
1.232000E-7	9.626695E-4
1.233000E-7	1.219612E-3
1.234000E-7	1.839700E-3
1.235000E-7	2.216549E-3
1.236000E-7	2.336455E-3
1.237000E-7	2.113772E-3
1.238000E-7	2.288493E-3
1.239000E-7	1.731784E-3
1.240000E-7	1.310398E-3
1.241000E-7	7.948004E-4
1.242000E-7	4.676270E-4
1.243000E-7	5.789687E-4
1.244000E-7	4.299421E-4
1.245000E-7	5.738299E-4
1.246000E-7	8.735961E-4
1.247000E-7	1.394333E-3
1.248000E-7	1.903079E-3
1.249000E-7	2.286780E-3
1.250000E-7	2.411825E-3
1.251000E-7	2.278215E-3
1.252000E-7	2.110346E-3
1.253000E-7	2.012708E-3
1.254000E-7	1.688960E-3
1.255000E-7	1.216186E-3
1.256000E-7	6.457738E-4
1.257000E-7	6.783198E-4
1.258000E-7	5.532745E-4
1.259000E-7	7.057270E-4
1.260000E-7	8.616055E-4
1.261000E-7	1.060308E-3
1.262000E-7	1.716368E-3
1.263000E-7	2.007569E-3
1.264000E-7	2.166873E-3
1.265000E-7	1.981875E-3
1.266000E-7	2.134327E-3
1.267000E-7	1.990440E-3
1.268000E-7	1.663266E-3
1.269000E-7	1.048317E-3
1.270000E-7	6.474867E-4
1.271000E-7	5.481356E-4
1.272000E-7	6.389220E-4
1.273000E-7	4.933212E-4
1.274000E-7	7.382731E-4
1.275000E-7	1.144242E-3
1.276000E-7	1.368639E-3
1.277000E-7	1.824283E-3
1.278000E-7	2.134327E-3
1.279000E-7	1.937338E-3
1.280000E-7	2.129189E-3
1.281000E-7	2.170299E-3
1.282000E-7	1.844839E-3
1.283000E-7	1.584470E-3
1.284000E-7	1.151094E-3
1.285000E-7	6.200795E-4
1.286000E-7	5.412838E-4
1.287000E-7	3.357298E-4
1.288000E-7	7.571155E-4
1.289000E-7	7.194306E-4
1.290000E-7	1.209334E-3
1.291000E-7	1.396046E-3
1.292000E-7	1.815719E-3
1.293000E-7	2.101781E-3
1.294000E-7	1.795163E-3
1.295000E-7	1.966458E-3
1.296000E-7	1.995578E-3
1.297000E-7	1.440583E-3
1.298000E-7	1.048317E-3
1.299000E-7	8.102170E-4
1.300000E-7	6.885975E-4
1.301000E-7	5.292932E-4
1.302000E-7	6.971623E-4
1.303000E-7	8.872997E-4
1.304000E-7	1.020910E-3
1.305000E-7	1.459425E-3
1.306000E-7	1.858542E-3
1.307000E-7	2.279928E-3
1.308000E-7	2.041828E-3
1.309000E-7	1.968171E-3
1.310000E-7	1.880811E-3
1.311000E-7	1.649563E-3
1.312000E-7	1.139103E-3
1.313000E-7	8.239206E-4
1.314000E-7	6.526256E-4
1.315000E-7	6.440608E-4
1.316000E-7	4.813306E-4
1.317000E-7	7.673932E-4
1.318000E-7	1.413175E-3
1.319000E-7	1.649563E-3
1.320000E-7	1.863681E-3
1.321000E-7	2.144605E-3
1.322000E-7	2.158309E-3
1.323000E-7	1.957894E-3
1.324000E-7	1.822570E-3
1.325000E-7	2.057245E-3
1.326000E-7	1.545073E-3
1.327000E-7	1.050030E-3
1.328000E-7	5.549874E-4
1.329000E-7	5.498486E-4
1.330000E-7	3.442946E-4
1.331000E-7	5.395709E-4
1.332000E-7	7.399860E-4
1.333000E-7	1.228177E-3
1.334000E-7	1.635859E-3
1.335000E-7	1.885950E-3
1.336000E-7	2.329604E-3
1.337000E-7	2.002430E-3
1.338000E-7	1.861968E-3
1.339000E-7	1.873959E-3
1.340000E-7	1.779747E-3
1.341000E-7	1.438870E-3
1.342000E-7	8.273465E-4
1.343000E-7	6.885975E-4
1.344000E-7	3.631370E-4
1.345000E-7	8.376242E-4
1.346000E-7	8.753091E-4
1.347000E-7	1.055169E-3
1.348000E-7	1.377203E-3
1.349000E-7	1.678683E-3
1.350000E-7	1.834561E-3
1.351000E-7	2.221688E-3
1.352000E-7	2.242243E-3
1.353000E-7	2.127476E-3
1.354000E-7	2.130901E-3
1.355000E-7	1.426879E-3
1.356000E-7	9.900767E-4
1.357000E-7	6.971623E-4
1.358000E-7	7.091529E-4
1.359000E-7	5.978112E-4
1.360000E-7	8.992904E-4
1.361000E-7	9.112810E-4
1.362000E-7	1.216186E-3
1.363000E-7	1.647850E-3
1.364000E-7	1.987014E-3
1.365000E-7	2.230253E-3
1.366000E-7	1.808867E-3
1.367000E-7	1.973310E-3
1.368000E-7	1.891088E-3
1.369000E-7	1.736923E-3
1.370000E-7	9.986415E-4
1.371000E-7	7.605414E-4
1.372000E-7	5.018860E-4
1.373000E-7	3.836924E-4
1.374000E-7	5.635522E-4
1.375000E-7	7.245695E-4
1.376000E-7	1.063734E-3
1.377000E-7	1.229890E-3
1.378000E-7	1.534795E-3
1.379000E-7	1.942477E-3
1.380000E-7	1.961319E-3
1.381000E-7	1.915070E-3
1.382000E-7	2.160022E-3
1.383000E-7	1.743775E-3
1.384000E-7	1.125400E-3
1.385000E-7	8.067911E-4
1.386000E-7	3.648500E-4
1.387000E-7	5.772558E-4
1.388000E-7	5.481356E-4
1.389000E-7	4.659140E-4
1.390000E-7	1.197344E-3
1.391000E-7	1.221325E-3
1.392000E-7	1.620442E-3
1.393000E-7	1.808867E-3
1.394000E-7	2.112059E-3
1.395000E-7	2.082939E-3
1.396000E-7	2.072661E-3
1.397000E-7	2.002430E-3
1.398000E-7	1.539934E-3
1.399000E-7	1.074011E-3
1.400000E-7	5.995241E-4
1.401000E-7	5.772558E-4
1.402000E-7	5.001730E-4
1.403000E-7	4.590622E-4
1.404000E-7	7.793839E-4
1.405000E-7	1.156233E-3
1.406000E-7	1.445721E-3
1.407000E-7	1.860255E-3
1.408000E-7	2.214836E-3
1.409000E-7	1.954468E-3
1.410000E-7	1.971597E-3
1.411000E-7	1.966458E-3
1.412000E-7	1.807154E-3
1.413000E-7	1.271001E-3
1.414000E-7	8.239206E-4
1.415000E-7	5.258673E-4
1.416000E-7	7.279954E-4
1.417000E-7	5.481356E-4
1.418000E-7	6.680421E-4
1.419000E-7	8.753091E-4
1.420000E-7	1.243593E-3
1.421000E-7	1.639285E-3
1.422000E-7	2.153170E-3
1.423000E-7	2.019560E-3
1.424000E-7	1.995578E-3
1.425000E-7	1.947616E-3
1.426000E-7	1.798589E-3
1.427000E-7	1.445721E-3
1.428000E-7	9.523918E-4
1.429000E-7	7.074400E-4
1.430000E-7	4.350809E-4
1.431000E-7	4.504975E-4
1.432000E-7	2.774895E-4
1.433000E-7	6.611903E-4
1.434000E-7	1.010632E-3
1.435000E-7	1.663266E-3
1.436000E-7	2.004143E-3
1.437000E-7	2.180577E-3
1.438000E-7	2.106920E-3
1.439000E-7	2.088078E-3
1.440000E-7	2.007569E-3
1.441000E-7	1.495397E-3
1.442000E-7	1.115122E-3
1.443000E-7	6.714680E-4
1.444000E-7	6.988752E-4
1.445000E-7	7.057270E-4
1.446000E-7	3.871183E-4
1.447000E-7	7.211436E-4
1.448000E-7	7.810968E-4
1.449000E-7	1.204195E-3
1.450000E-7	1.754052E-3
1.451000E-7	2.048680E-3
1.452000E-7	2.110346E-3
1.453000E-7	2.125763E-3
1.454000E-7	2.077800E-3
1.455000E-7	1.927060E-3
1.456000E-7	1.303547E-3
1.457000E-7	1.168224E-3
1.458000E-7	1.008919E-3
1.459000E-7	6.440608E-4
1.460000E-7	1.644348E-4
1.461000E-7	5.361450E-4
1.462000E-7	9.558177E-4
1.463000E-7	1.421740E-3
1.464000E-7	1.721506E-3
1.465000E-7	1.805441E-3
1.466000E-7	2.225114E-3
1.467000E-7	2.120624E-3
1.468000E-7	2.213123E-3
1.469000E-7	1.894514E-3
1.470000E-7	1.767756E-3
1.471000E-7	1.058595E-3
1.472000E-7	7.365601E-4
1.473000E-7	7.845227E-4
1.474000E-7	5.481356E-4
1.475000E-7	8.530407E-4
1.476000E-7	6.406349E-4
1.477000E-7	1.079150E-3
1.478000E-7	1.514239E-3
1.479000E-7	1.726645E-3
1.480000E-7	1.863681E-3
1.481000E-7	2.052106E-3
1.482000E-7	2.076087E-3
1.483000E-7	2.132614E-3
1.484000E-7	1.711229E-3
1.485000E-7	1.272713E-3
1.486000E-7	8.153558E-4
1.487000E-7	5.155896E-4
1.488000E-7	4.025349E-4
1.489000E-7	5.498486E-4
1.490000E-7	6.406349E-4
1.491000E-7	1.003780E-3
1.492000E-7	1.205908E-3
1.493000E-7	1.771182E-3
1.494000E-7	1.635859E-3
1.495000E-7	2.106920E-3
1.496000E-7	2.134327E-3
1.497000E-7	2.156596E-3
1.498000E-7	1.786599E-3
1.499000E-7	1.269288E-3
1.500000E-7	7.297083E-4
1.501000E-7	7.245695E-4
1.502000E-7	7.502637E-4
1.503000E-7	6.491997E-4
1.504000E-7	4.504975E-4
1.505000E-7	9.129940E-4
1.506000E-7	1.121974E-3
1.507000E-7	1.562202E-3
1.508000E-7	1.798589E-3
1.509000E-7	2.012708E-3
1.510000E-7	2.221688E-3
1.511000E-7	2.125763E-3
1.512000E-7	2.259373E-3
1.513000E-7	1.815719E-3
1.514000E-7	1.346370E-3
1.515000E-7	9.506789E-4
1.516000E-7	7.913745E-4
1.517000E-7	8.667443E-4
1.518000E-7	8.496148E-4
1.519000E-7	8.633184E-4
1.520000E-7	1.058595E-3
1.521000E-7	1.253871E-3
1.522000E-7	1.858542E-3
1.523000E-7	1.935625E-3
1.524000E-7	2.057245E-3
1.525000E-7	1.906505E-3
1.526000E-7	2.245669E-3
1.527000E-7	1.933912E-3
1.528000E-7	1.322389E-3
1.529000E-7	9.147069E-4
1.530000E-7	6.594774E-4
1.531000E-7	6.543385E-4
1.532000E-7	3.819795E-4
1.533000E-7	7.091529E-4
1.534000E-7	8.547537E-4
1.535000E-7	1.267575E-3
1.536000E-7	1.533082E-3
1.537000E-7	1.810580E-3
1.538000E-7	2.004143E-3
1.539000E-7	1.906505E-3
1.540000E-7	2.017847E-3
1.541000E-7	2.065809E-3
1.542000E-7	1.625581E-3
1.543000E-7	1.002067E-3
1.544000E-7	5.858205E-4
1.545000E-7	5.601263E-4
1.546000E-7	5.224414E-4
1.547000E-7	4.128126E-4
1.548000E-7	5.618392E-4
1.549000E-7	9.489659E-4
1.550000E-7	1.303547E-3
1.551000E-7	1.688960E-3
1.552000E-7	2.005856E-3
1.553000E-7	1.933912E-3
1.554000E-7	1.945903E-3
1.555000E-7	1.783173E-3
1.556000E-7	1.673544E-3
1.557000E-7	1.164798E-3
1.558000E-7	8.581796E-4
1.559000E-7	5.943853E-4
1.560000E-7	7.160047E-4
1.561000E-7	7.434119E-4
1.562000E-7	5.635522E-4
1.563000E-7	7.759580E-4
1.564000E-7	1.154520E-3
1.565000E-7	1.856829E-3
1.566000E-7	1.995578E-3
1.567000E-7	1.867107E-3
1.568000E-7	1.707803E-3
1.569000E-7	1.822570E-3
1.570000E-7	1.757478E-3
1.571000E-7	1.551924E-3
1.572000E-7	1.250445E-3
1.573000E-7	8.102170E-4
1.574000E-7	5.241543E-4
1.575000E-7	6.611903E-4
1.576000E-7	6.680421E-4
1.577000E-7	7.211436E-4
1.578000E-7	1.121974E-3
1.579000E-7	1.471416E-3
1.580000E-7	1.882524E-3
1.581000E-7	2.088078E-3
1.582000E-7	2.053819E-3
1.583000E-7	2.053819E-3
1.584000E-7	2.060671E-3
1.585000E-7	1.824283E-3
1.586000E-7	1.010632E-3
1.587000E-7	4.779047E-4
1.588000E-7	5.087378E-4
1.589000E-7	4.779047E-4
1.590000E-7	4.950342E-4
1.591000E-7	8.290594E-4
1.592000E-7	9.386882E-4
1.593000E-7	1.462851E-3
1.594000E-7	1.688960E-3
1.595000E-7	1.990440E-3
1.596000E-7	2.172012E-3
1.597000E-7	1.903079E-3
1.598000E-7	2.093217E-3
1.599000E-7	1.995578E-3
1.600000E-7	1.738636E-3
1.601000E-7	1.020910E-3
1.602000E-7	7.999393E-4
1.603000E-7	6.491997E-4
1.604000E-7	6.834587E-4
1.605000E-7	6.543385E-4
1.606000E-7	9.866508E-4
1.607000E-7	1.217899E-3
1.608000E-7	1.802015E-3
1.609000E-7	2.122337E-3
1.610000E-7	2.267937E-3
1.611000E-7	1.927060E-3
1.612000E-7	1.860255E-3
1.613000E-7	1.916783E-3
1.614000E-7	1.743775E-3
1.615000E-7	9.849379E-4
1.616000E-7	4.522104E-4
1.617000E-7	5.087378E-4
1.618000E-7	6.629033E-4
1.619000E-7	5.841076E-4
1.620000E-7	7.862357E-4
1.621000E-7	1.075724E-3
1.622000E-7	1.339519E-3
1.623000E-7	1.808867E-3
1.624000E-7	2.098355E-3
1.625000E-7	2.094930E-3
1.626000E-7	1.646137E-3
1.627000E-7	1.930486E-3
1.628000E-7	1.721506E-3
1.629000E-7	1.149381E-3
1.630000E-7	9.386882E-4
1.631000E-7	6.115148E-4
1.632000E-7	7.896616E-4
1.633000E-7	5.327191E-4
1.634000E-7	6.149407E-4
1.635000E-7	8.427630E-4
1.636000E-7	1.259010E-3
1.637000E-7	1.647850E-3
1.638000E-7	2.079513E-3
1.639000E-7	2.110346E-3
1.640000E-7	2.053819E-3
1.641000E-7	1.920209E-3
1.642000E-7	1.712942E-3
1.643000E-7	1.577619E-3
1.644000E-7	7.673932E-4
1.645000E-7	6.629033E-4
1.646000E-7	6.646162E-4
1.647000E-7	5.823946E-4
1.648000E-7	5.138766E-4
1.649000E-7	6.491997E-4
1.650000E-7	1.330954E-3
1.651000E-7	1.435444E-3
1.652000E-7	1.909931E-3
1.653000E-7	2.298771E-3
1.654000E-7	2.028124E-3
1.655000E-7	2.094930E-3
1.656000E-7	2.022986E-3
1.657000E-7	1.925347E-3
1.658000E-7	1.193918E-3
1.659000E-7	8.735961E-4
1.660000E-7	4.453586E-4
1.661000E-7	2.997579E-4
1.662000E-7	6.115148E-4
1.663000E-7	8.804479E-4
1.664000E-7	9.369753E-4
1.665000E-7	1.063734E-3
1.666000E-7	1.918496E-3
1.667000E-7	1.873959E-3
1.668000E-7	1.947616E-3
1.669000E-7	1.796876E-3
1.670000E-7	2.041828E-3
1.671000E-7	1.800302E-3
1.672000E-7	1.546785E-3
1.673000E-7	1.097993E-3
1.674000E-7	4.881824E-4
1.675000E-7	2.946190E-4
1.676000E-7	7.057270E-4
1.677000E-7	5.721169E-4
1.678000E-7	1.036326E-3
1.679000E-7	1.408037E-3
1.680000E-7	1.675257E-3
1.681000E-7	1.764330E-3
1.682000E-7	1.824283E-3
1.683000E-7	1.885950E-3
1.684000E-7	2.112059E-3
1.685000E-7	1.901366E-3
1.686000E-7	1.301834E-3
1.687000E-7	8.393371E-4
1.688000E-7	5.344320E-4
1.689000E-7	5.686910E-4
1.690000E-7	4.162385E-4
1.691000E-7	5.584133E-4
1.692000E-7	4.539234E-4
1.693000E-7	8.787350E-4
1.694000E-7	1.272713E-3
1.695000E-7	1.793450E-3
1.696000E-7	1.896227E-3
1.697000E-7	2.043541E-3
1.698000E-7	1.762617E-3
1.699000E-7	2.177151E-3
1.700000E-7	1.892801E-3
1.701000E-7	1.574193E-3
1.702000E-7	1.378916E-3
1.703000E-7	7.845227E-4
1.704000E-7	4.830435E-4
1.705000E-7	4.659140E-4
1.706000E-7	7.759580E-4
1.707000E-7	7.982263E-4
1.708000E-7	1.127113E-3
1.709000E-7	1.642711E-3
1.710000E-7	1.985301E-3
1.711000E-7	2.317613E-3
1.712000E-7	2.062383E-3
1.713000E-7	2.057245E-3
1.714000E-7	1.932199E-3
1.715000E-7	1.793450E-3
1.716000E-7	9.558177E-4
1.717000E-7	6.731810E-4
1.718000E-7	2.261010E-4
1.719000E-7	3.751277E-4
1.720000E-7	5.327191E-4
1.721000E-7	7.605414E-4
1.722000E-7	1.024336E-3
1.723000E-7	1.408037E-3
1.724000E-7	1.788311E-3
1.725000E-7	2.033263E-3
1.726000E-7	1.863681E-3
1.727000E-7	1.921922E-3
1.728000E-7	1.932199E-3
1.729000E-7	1.820858E-3
1.730000E-7	1.181927E-3
1.731000E-7	8.410501E-4
1.732000E-7	6.577644E-4
1.733000E-7	6.920234E-4
1.734000E-7	3.717018E-4
1.735000E-7	3.973960E-4
1.736000E-7	7.845227E-4
1.737000E-7	1.247019E-3
1.738000E-7	1.762617E-3
1.739000E-7	1.891088E-3
1.740000E-7	1.995578E-3
1.741000E-7	2.093217E-3
1.742000E-7	2.130901E-3
1.743000E-7	1.909931E-3
1.744000E-7	1.479980E-3
1.745000E-7	1.029475E-3
1.746000E-7	7.485508E-4
1.747000E-7	5.412838E-4
1.748000E-7	4.950342E-4
1.749000E-7	6.783198E-4
1.750000E-7	8.650314E-4
1.751000E-7	1.147668E-3
1.752000E-7	1.569054E-3
1.753000E-7	1.848265E-3
1.754000E-7	1.971597E-3
1.755000E-7	1.766043E-3
1.756000E-7	1.716368E-3
1.757000E-7	2.053819E-3
1.758000E-7	1.767756E-3
1.759000E-7	1.318963E-3
1.760000E-7	9.815120E-4
1.761000E-7	7.554026E-4
1.762000E-7	8.341983E-4
1.763000E-7	5.035989E-4
1.764000E-7	6.337831E-4
1.765000E-7	9.386882E-4
1.766000E-7	1.072298E-3
1.767000E-7	1.754052E-3
1.768000E-7	2.262799E-3
1.769000E-7	2.098355E-3
1.770000E-7	2.062383E-3
1.771000E-7	2.010995E-3
1.772000E-7	1.738636E-3
1.773000E-7	1.541647E-3
1.774000E-7	1.000354E-3
1.775000E-7	6.988752E-4
1.776000E-7	6.920234E-4
1.777000E-7	4.693399E-4
1.778000E-7	4.779047E-4
1.779000E-7	7.622544E-4
1.780000E-7	1.281278E-3
1.781000E-7	1.617016E-3
1.782000E-7	2.009282E-3
1.783000E-7	2.110346E-3
1.784000E-7	2.014421E-3
1.785000E-7	1.933912E-3
1.786000E-7	1.767756E-3
1.787000E-7	1.536508E-3
1.788000E-7	1.267575E-3
1.789000E-7	8.547537E-4
1.790000E-7	6.903105E-4
1.791000E-7	6.183666E-4
1.792000E-7	5.704040E-4
1.793000E-7	9.986415E-4
1.794000E-7	1.050030E-3
1.795000E-7	1.421740E-3
1.796000E-7	2.021273E-3
1.797000E-7	2.161735E-3
1.798000E-7	1.856829E-3
1.799000E-7	2.016134E-3
1.800000E-7	1.853404E-3
1.801000E-7	1.611878E-3
1.802000E-7	1.144242E-3
1.803000E-7	9.695213E-4
1.804000E-7	9.404012E-4
1.805000E-7	8.136429E-4
1.806000E-7	5.018860E-4
1.807000E-7	5.892464E-4
1.808000E-7	9.746602E-4
1.809000E-7	1.058595E-3
1.810000E-7	1.702664E-3
1.811000E-7	2.211410E-3
1.812000E-7	2.235391E-3
1.813000E-7	1.870533E-3
1.814000E-7	1.969884E-3
1.815000E-7	1.981875E-3
1.816000E-7	1.546785E-3
1.817000E-7	8.119299E-4
1.818000E-7	6.629033E-4
1.819000E-7	7.845227E-4
1.820000E-7	7.605414E-4
1.821000E-7	5.584133E-4
1.822000E-7	7.519767E-4
1.823000E-7	1.046604E-3
1.824000E-7	1.904792E-3
1.825000E-7	1.993865E-3
1.826000E-7	2.156596E-3
1.827000E-7	1.819145E-3
1.828000E-7	1.730071E-3
1.829000E-7	2.230253E-3
1.830000E-7	1.637572E-3
1.831000E-7	1.149381E-3
1.832000E-7	8.992904E-4
1.833000E-7	7.297083E-4
1.834000E-7	6.731810E-4
1.835000E-7	5.190155E-4
1.836000E-7	8.290594E-4
1.837000E-7	1.022623E-3
1.838000E-7	1.248732E-3
1.839000E-7	1.445721E-3
1.840000E-7	1.927060E-3
1.841000E-7	1.978449E-3
1.842000E-7	2.139466E-3
1.843000E-7	2.077800E-3
1.844000E-7	1.853404E-3
1.845000E-7	1.269288E-3
1.846000E-7	1.055169E-3
1.847000E-7	7.434119E-4
1.848000E-7	7.982263E-4
1.849000E-7	4.727658E-4
1.850000E-7	5.018860E-4
1.851000E-7	6.834587E-4
1.852000E-7	1.253871E-3
1.853000E-7	1.839700E-3
1.854000E-7	1.718081E-3
1.855000E-7	2.156596E-3
1.856000E-7	1.891088E-3
1.857000E-7	1.810580E-3
1.858000E-7	1.812293E-3
1.859000E-7	1.296695E-3
1.860000E-7	1.038039E-3
1.861000E-7	7.930875E-4
1.862000E-7	6.817457E-4
1.863000E-7	6.748939E-4
1.864000E-7	6.560515E-4
1.865000E-7	6.526256E-4
1.866000E-7	1.051743E-3
1.867000E-7	1.548498E-3
1.868000E-7	1.870533E-3
1.869000E-7	1.933912E-3
1.870000E-7	2.004143E-3
1.871000E-7	1.882524E-3
1.872000E-7	2.132614E-3
1.873000E-7	1.630720E-3
1.874000E-7	1.038039E-3
1.875000E-7	7.810968E-4
1.876000E-7	5.190155E-4
1.877000E-7	5.823946E-4
1.878000E-7	4.436457E-4
1.879000E-7	6.937364E-4
1.880000E-7	9.609566E-4
1.881000E-7	1.298408E-3
1.882000E-7	1.836274E-3
1.883000E-7	2.219975E-3
1.884000E-7	2.259373E-3
1.885000E-7	2.058958E-3
1.886000E-7	2.101781E-3
1.887000E-7	1.956181E-3
1.888000E-7	1.512526E-3
1.889000E-7	1.074011E-3
1.890000E-7	8.359112E-4
1.891000E-7	4.898953E-4
1.892000E-7	6.115148E-4
1.893000E-7	6.320702E-4
1.894000E-7	8.547537E-4
1.895000E-7	9.523918E-4
1.896000E-7	1.473129E-3
1.897000E-7	1.966458E-3
1.898000E-7	2.012708E-3
1.899000E-7	2.230253E-3
1.900000E-7	1.959606E-3
1.901000E-7	2.170299E-3
1.902000E-7	1.719793E-3
1.903000E-7	1.121974E-3
1.904000E-7	9.232717E-4
1.905000E-7	6.766069E-4
1.906000E-7	5.892464E-4
1.907000E-7	4.642011E-4
1.908000E-7	6.252184E-4
1.909000E-7	8.787350E-4
1.910000E-7	1.293269E-3
1.911000E-7	1.856829E-3
1.912000E-7	1.951042E-3
1.913000E-7	1.918496E-3
1.914000E-7	2.197707E-3
1.915000E-7	2.297058E-3
1.916000E-7	2.124050E-3
1.917000E-7	1.226464E-3
1.918000E-7	6.971623E-4
1.919000E-7	4.710529E-4
1.920000E-7	5.121637E-4
1.921000E-7	1.952679E-4
1.922000E-7	3.305910E-4
1.923000E-7	7.108659E-4
1.924000E-7	1.310398E-3
1.925000E-7	1.473129E-3
1.926000E-7	1.937338E-3
1.927000E-7	2.034976E-3
1.928000E-7	1.755765E-3
1.929000E-7	1.858542E-3
1.930000E-7	2.105207E-3
1.931000E-7	1.601600E-3
1.932000E-7	9.952156E-4
1.933000E-7	5.053119E-4
1.934000E-7	3.854054E-4
1.935000E-7	4.145255E-4
1.936000E-7	3.014708E-4
1.937000E-7	3.699888E-4
1.938000E-7	8.975774E-4
1.939000E-7	1.404611E-3
1.940000E-7	1.901366E-3
1.941000E-7	2.067522E-3
1.942000E-7	2.043541E-3
1.943000E-7	2.149744E-3
1.944000E-7	2.219975E-3
1.945000E-7	1.808867E-3
1.946000E-7	1.315537E-3
1.947000E-7	8.941515E-4
1.948000E-7	6.098018E-4
1.949000E-7	4.813306E-4
1.950000E-7	4.453586E-4
1.951000E-7	5.978112E-4
1.952000E-7	9.198458E-4
1.953000E-7	1.257297E-3
1.954000E-7	1.668405E-3
1.955000E-7	1.879098E-3
1.956000E-7	2.197707E-3
1.957000E-7	1.913357E-3
1.958000E-7	1.963032E-3
1.959000E-7	1.959606E-3
1.960000E-7	1.574193E-3
1.961000E-7	7.502637E-4
1.962000E-7	6.269313E-4
1.963000E-7	6.269313E-4
1.964000E-7	6.680421E-4
1.965000E-7	7.108659E-4
1.966000E-7	8.479019E-4
1.967000E-7	1.288130E-3
1.968000E-7	1.500536E-3
1.969000E-7	1.688960E-3
1.970000E-7	1.834561E-3
1.971000E-7	1.983588E-3
1.972000E-7	2.177151E-3
1.973000E-7	2.098355E-3
1.974000E-7	1.663266E-3
1.975000E-7	1.031188E-3
1.976000E-7	9.078551E-4
1.977000E-7	4.967471E-4
1.978000E-7	5.960982E-4
1.979000E-7	3.168874E-4
1.980000E-7	7.622544E-4
1.981000E-7	8.581796E-4
1.982000E-7	1.414888E-3
1.983000E-7	1.731784E-3
1.984000E-7	2.002430E-3
1.985000E-7	1.968171E-3
1.986000E-7	1.976736E-3
1.987000E-7	2.201132E-3
1.988000E-7	2.255947E-3
1.989000E-7	1.678683E-3
1.990000E-7	1.012345E-3
1.991000E-7	8.667443E-4
1.992000E-7	7.502637E-4
1.993000E-7	5.087378E-4
1.994000E-7	6.372090E-4
1.995000E-7	7.485508E-4
1.996000E-7	1.113409E-3
1.997000E-7	1.560489E-3
1.998000E-7	1.930486E-3
1.999000E-7	2.336455E-3
2.000000E-7	1.992153E-3
2.001000E-7	1.925347E-3
