Study Name	Tungsten_Calibration
Sample Name	2024-10-02
Run Name	baseline
Operator	Elena
Date	10/2/2024
Time	14:02
Sign	NEG
Grating Spacing	03.40um
Channel	3
Number Traces	2000
Files in Batch	6
Batch Number	6
dt	100.000001E-12
time stamp (ms)	2:03:04 PM
	
Time	Amplitude
0.000000E+0	-9.644657E-4
1.000000E-10	-6.837254E-6
2.000000E-10	8.771275E-4
3.000000E-10	2.418927E-3
4.000000E-10	3.011663E-3
5.000000E-10	3.592407E-3
6.000000E-10	4.114905E-3
7.000000E-10	3.806546E-3
8.000000E-10	3.186400E-3
9.000000E-10	1.661732E-3
1.000000E-9	1.970228E-4
1.100000E-9	7.025270E-5
1.200000E-9	-1.267686E-3
1.300000E-9	-1.683972E-3
1.400000E-9	-1.707955E-3
1.500000E-9	-1.147632E-4
1.600000E-9	7.503574E-4
1.700000E-9	1.116963E-3
1.800000E-9	2.484025E-3
1.900000E-9	3.861365E-3
2.000000E-9	4.550035E-3
2.100000E-9	4.906362E-3
2.200000E-9	3.856226E-3
2.300000E-9	3.181260E-3
2.400000E-9	4.282927E-4
2.500000E-9	-7.434746E-4
2.600000E-9	-1.591464E-3
2.700000E-9	-1.702816E-3
2.800000E-9	-1.094662E-3
2.900000E-9	-3.511724E-4
3.000000E-9	2.946701E-4
3.100000E-9	1.092979E-3
3.200000E-9	2.225345E-3
3.300000E-9	3.686628E-3
3.400000E-9	4.329044E-3
3.500000E-9	4.229684E-3
3.600000E-9	4.433544E-3
3.700000E-9	3.133293E-3
3.800000E-9	1.259151E-3
3.900000E-9	-2.363940E-4
4.000000E-9	-1.044982E-3
4.100000E-9	-1.769627E-3
4.200000E-9	-1.891258E-3
4.300000E-9	-7.314828E-4
4.400000E-9	4.455605E-5
4.500000E-9	5.293662E-4
4.600000E-9	1.702847E-3
4.700000E-9	2.669041E-3
4.800000E-9	3.741447E-3
4.900000E-9	4.764174E-3
5.000000E-9	3.952160E-3
5.100000E-9	2.946564E-3
5.200000E-9	2.030051E-3
5.300000E-9	5.807595E-4
5.400000E-9	-2.535251E-4
5.500000E-9	-1.300235E-3
5.600000E-9	-1.565767E-3
5.700000E-9	-1.624013E-3
5.800000E-9	-3.700166E-4
5.900000E-9	4.248665E-4
6.000000E-9	1.245446E-3
6.100000E-9	2.290443E-3
6.200000E-9	3.414243E-3
6.300000E-9	4.222831E-3
6.400000E-9	4.836125E-3
6.500000E-9	3.856226E-3
6.600000E-9	2.543984E-3
6.700000E-9	7.349394E-4
6.800000E-9	-1.882902E-5
6.900000E-9	-9.627526E-4
7.000000E-9	-1.779906E-3
7.100000E-9	-1.714808E-3
7.200000E-9	-1.128924E-3
7.300000E-9	-9.934519E-5
7.400000E-9	9.679223E-4
7.500000E-9	2.086583E-3
7.600000E-9	2.739278E-3
7.700000E-9	4.251954E-3
7.800000E-9	4.558601E-3
7.900000E-9	4.162873E-3
8.000000E-9	2.638205E-3
8.100000E-9	1.822764E-3
8.200000E-9	1.233591E-4
8.300000E-9	-4.128443E-4
8.400000E-9	-1.272826E-3
8.500000E-9	-1.793611E-3
8.600000E-9	-1.675406E-3
8.700000E-9	-8.359825E-4
8.800000E-9	6.133086E-4
8.900000E-9	1.675437E-3
9.000000E-9	2.429205E-3
9.100000E-9	3.436514E-3
9.200000E-9	4.346175E-3
9.300000E-9	4.846403E-3
9.400000E-9	3.652366E-3
9.500000E-9	1.622330E-3
9.600000E-9	9.766246E-5
9.700000E-9	-4.094181E-4
9.800000E-9	-1.190596E-3
9.900000E-9	-1.988906E-3
1.000000E-8	-2.403478E-3
1.010000E-8	-1.742218E-3
1.020000E-8	5.276531E-4
1.030000E-8	7.794802E-4
1.040000E-8	2.059173E-3
1.050000E-8	2.914015E-3
1.060000E-8	4.037815E-3
1.070000E-8	4.505495E-3
1.080000E-8	3.844234E-3
1.090000E-8	2.019772E-3
1.100000E-8	1.341380E-3
1.110000E-8	3.443503E-4
1.120000E-8	-7.143517E-4
1.130000E-8	-1.438997E-3
1.140000E-8	-1.478399E-3
1.150000E-8	-9.370560E-4
1.160000E-8	2.399873E-5
1.170000E-8	1.171782E-3
1.180000E-8	1.648027E-3
1.190000E-8	2.321279E-3
1.200000E-8	3.890488E-3
1.210000E-8	4.805289E-3
1.220000E-8	4.747043E-3
1.230000E-8	3.124728E-3
1.240000E-8	2.088296E-3
1.250000E-8	1.627606E-4
1.260000E-8	-4.539590E-4
1.270000E-8	-8.068596E-4
1.280000E-8	-1.403022E-3
1.290000E-8	-1.308801E-3
1.300000E-8	-2.175498E-4
1.310000E-8	5.824726E-4
1.320000E-8	1.767945E-3
1.330000E-8	2.436058E-3
1.340000E-8	3.409104E-3
1.350000E-8	4.534617E-3
1.360000E-8	4.529478E-3
1.370000E-8	3.604399E-3
1.380000E-8	3.486194E-3
1.390000E-8	1.240307E-3
1.400000E-8	2.261457E-4
1.410000E-8	-8.531136E-4
1.420000E-8	-1.576046E-3
1.430000E-8	-2.400052E-3
1.440000E-8	-1.562341E-3
1.450000E-8	2.175802E-4
1.460000E-8	1.180348E-3
1.470000E-8	2.194509E-3
1.480000E-8	3.188113E-3
1.490000E-8	4.006979E-3
1.500000E-8	4.498642E-3
1.510000E-8	4.392429E-3
1.520000E-8	3.172695E-3
1.530000E-8	1.483568E-3
1.540000E-8	-1.096239E-4
1.550000E-8	6.867627E-6
1.560000E-8	-8.222776E-4
1.570000E-8	-1.370473E-3
1.580000E-8	-7.588925E-4
1.590000E-8	1.714629E-5
1.600000E-8	8.582833E-4
1.610000E-8	1.891289E-3
1.620000E-8	2.903737E-3
1.630000E-8	3.383407E-3
1.640000E-8	4.298208E-3
1.650000E-8	4.282790E-3
1.660000E-8	2.941425E-3
1.670000E-8	1.997501E-3
1.680000E-8	5.927512E-4
1.690000E-8	-5.104916E-4
1.700000E-8	-1.183744E-3
1.710000E-8	-1.872414E-3
1.720000E-8	-1.740505E-3
1.730000E-8	-4.436803E-4
1.740000E-8	2.604079E-4
1.750000E-8	1.283135E-3
1.760000E-8	1.534962E-3
1.770000E-8	2.569680E-3
1.780000E-8	4.185143E-3
1.790000E-8	4.563740E-3
1.800000E-8	3.445079E-3
1.810000E-8	2.708442E-3
1.820000E-8	1.360225E-3
1.830000E-8	8.480046E-4
1.840000E-8	-1.061976E-4
1.850000E-8	-9.559002E-4
1.860000E-8	-1.528079E-3
1.870000E-8	-1.022711E-3
1.880000E-8	1.901704E-4
1.890000E-8	7.058165E-4
1.900000E-8	2.038616E-3
1.910000E-8	2.979113E-3
1.920000E-8	3.731169E-3
1.930000E-8	4.251954E-3
1.940000E-8	4.426691E-3
1.950000E-8	3.330301E-3
1.960000E-8	2.185944E-3
1.970000E-8	2.895308E-4
1.980000E-8	1.885940E-5
1.990000E-8	-9.696051E-4
2.000000E-8	-1.689111E-3
2.010000E-8	-1.856996E-3
2.020000E-8	-8.668185E-4
2.030000E-8	-1.558778E-4
2.040000E-8	3.100881E-4
2.050000E-8	2.093436E-3
2.060000E-8	3.475915E-3
2.070000E-8	4.431831E-3
2.080000E-8	4.344462E-3
2.090000E-8	3.780849E-3
2.100000E-8	3.105884E-3
2.110000E-8	1.495560E-3
2.120000E-8	6.167348E-4
2.130000E-8	-6.389748E-4
2.140000E-8	-1.486964E-3
2.150000E-8	-1.531505E-3
2.160000E-8	-8.154252E-4
2.170000E-8	-3.082079E-5
2.180000E-8	1.003898E-3
2.190000E-8	2.293869E-3
2.200000E-8	3.141859E-3
2.210000E-8	3.628382E-3
2.220000E-8	4.858395E-3
2.230000E-8	4.363306E-3
2.240000E-8	3.056203E-3
2.250000E-8	2.206501E-3
2.260000E-8	3.923174E-4
2.270000E-8	-3.614510E-4
2.280000E-8	-1.099801E-3
2.290000E-8	-1.553776E-3
2.300000E-8	-1.384178E-3
2.310000E-8	-1.610172E-4
2.320000E-8	4.625549E-4
2.330000E-8	1.603486E-3
2.340000E-8	1.821051E-3
2.350000E-8	3.445079E-3
2.360000E-8	3.952160E-3
2.370000E-8	4.120045E-3
2.380000E-8	4.078930E-3
2.390000E-8	2.509721E-3
2.400000E-8	5.893250E-4
2.410000E-8	-2.398202E-4
2.420000E-8	-1.224858E-3
2.430000E-8	-1.401309E-3
2.440000E-8	-1.872414E-3
2.450000E-8	-6.029995E-4
2.460000E-8	-4.109945E-5
2.470000E-8	1.087840E-3
2.480000E-8	2.170526E-3
2.490000E-8	2.842065E-3
2.500000E-8	4.202274E-3
2.510000E-8	4.423265E-3
2.520000E-8	3.892201E-3
2.530000E-8	3.066482E-3
2.540000E-8	1.730256E-3
2.550000E-8	4.951040E-4
2.560000E-8	-3.271888E-4
2.570000E-8	-1.151195E-3
2.580000E-8	-1.449276E-3
2.590000E-8	-1.313940E-3
2.600000E-8	3.049488E-4
2.610000E-8	1.307118E-3
2.620000E-8	2.132837E-3
2.630000E-8	2.475459E-3
2.640000E-8	3.040785E-3
2.650000E-8	4.481511E-3
2.660000E-8	4.639117E-3
2.670000E-8	3.446793E-3
2.680000E-8	2.607369E-3
2.690000E-8	9.662092E-4
2.700000E-8	-2.244022E-4
2.710000E-8	-1.721660E-3
2.720000E-8	-2.300692E-3
2.730000E-8	-2.259577E-3
2.740000E-8	-8.976545E-4
2.750000E-8	5.961775E-4
2.760000E-8	1.538388E-3
2.770000E-8	2.547410E-3
2.780000E-8	3.340580E-3
2.790000E-8	4.315339E-3
2.800000E-8	4.365019E-3
2.810000E-8	4.704215E-3
2.820000E-8	2.920868E-3
2.830000E-8	1.992362E-3
2.840000E-8	4.454238E-4
2.850000E-8	-7.606057E-4
2.860000E-8	-1.473259E-3
2.870000E-8	-9.798837E-4
2.880000E-8	-6.149913E-4
2.890000E-8	2.706866E-4
2.900000E-8	7.623491E-4
2.910000E-8	1.728543E-3
2.920000E-8	2.497730E-3
2.930000E-8	4.356454E-3
2.940000E-8	4.913215E-3
2.950000E-8	4.085783E-3
2.960000E-8	3.146998E-3
2.970000E-8	1.901567E-3
2.980000E-8	6.441446E-4
2.990000E-8	2.399873E-5
3.000000E-8	-7.229172E-4
3.010000E-8	-1.798750E-3
3.020000E-8	-1.327645E-3
3.030000E-8	1.182198E-4
3.040000E-8	8.086031E-4
3.050000E-8	1.437314E-3
3.060000E-8	2.502869E-3
3.070000E-8	3.326875E-3
3.080000E-8	3.792841E-3
3.090000E-8	3.933316E-3
3.100000E-8	3.090466E-3
3.110000E-8	2.430918E-3
3.120000E-8	1.266003E-3
3.130000E-8	-1.353205E-4
3.140000E-8	-9.302035E-4
3.150000E-8	-1.500669E-3
3.160000E-8	-1.481825E-3
3.170000E-8	-8.496874E-4
3.180000E-8	1.267853E-4
3.190000E-8	9.079635E-4
3.200000E-8	2.410361E-3
3.210000E-8	3.254924E-3
3.220000E-8	3.875070E-3
3.230000E-8	4.496929E-3
3.240000E-8	4.693937E-3
3.250000E-8	3.518743E-3
3.260000E-8	1.827904E-3
3.270000E-8	3.599050E-5
3.280000E-8	-1.027851E-3
3.290000E-8	-1.415014E-3
3.300000E-8	-1.343063E-3
3.310000E-8	-1.420153E-3
3.320000E-8	-5.533193E-4
3.330000E-8	6.903985E-4
3.340000E-8	1.699420E-3
3.350000E-8	2.812942E-3
3.360000E-8	3.109310E-3
3.370000E-8	4.389003E-3
3.380000E-8	4.512347E-3
3.390000E-8	3.546153E-3
3.400000E-8	2.812942E-3
3.410000E-8	1.086127E-3
3.420000E-8	-2.398202E-4
3.430000E-8	-1.255694E-3
3.440000E-8	-1.766201E-3
3.450000E-8	-1.687398E-3
3.460000E-8	-6.680977E-4
3.470000E-8	1.050152E-3
3.480000E-8	1.132381E-3
3.490000E-8	2.163673E-3
3.500000E-8	3.508464E-3
3.510000E-8	4.344462E-3
3.520000E-8	4.740191E-3
3.530000E-8	4.171438E-3
3.540000E-8	3.220662E-3
3.550000E-8	1.869018E-3
3.560000E-8	4.591287E-4
3.570000E-8	-8.856627E-4
3.580000E-8	-1.678833E-3
3.590000E-8	-1.512661E-3
3.600000E-8	-9.781706E-4
3.610000E-8	-4.077050E-4
3.620000E-8	7.075296E-4
3.630000E-8	2.105427E-3
3.640000E-8	2.638205E-3
3.650000E-8	3.643800E-3
3.660000E-8	4.195422E-3
3.670000E-8	4.311913E-3
3.680000E-8	3.856226E-3
3.690000E-8	1.971805E-3
3.700000E-8	7.983245E-4
3.710000E-8	7.367892E-5
3.720000E-8	-1.122072E-3
3.730000E-8	-1.911816E-3
3.740000E-8	-1.990619E-3
3.750000E-8	-4.488196E-4
3.760000E-8	4.454238E-4
3.770000E-8	1.307118E-3
3.780000E-8	2.406935E-3
3.790000E-8	3.570136E-3
3.800000E-8	4.526052E-3
3.810000E-8	4.181717E-3
3.820000E-8	3.619817E-3
3.830000E-8	2.175665E-3
3.840000E-8	7.246607E-4
3.850000E-8	-3.271888E-4
3.860000E-8	-9.678920E-4
3.870000E-8	-1.695964E-3
3.880000E-8	-2.065995E-3
3.890000E-8	-1.029564E-3
3.900000E-8	-2.209760E-4
3.910000E-8	7.092427E-4
3.920000E-8	2.004354E-3
3.930000E-8	2.919155E-3
3.940000E-8	3.654079E-3
3.950000E-8	4.070365E-3
3.960000E-8	3.982996E-3
3.970000E-8	3.347432E-3
3.980000E-8	1.838182E-3
3.990000E-8	7.657754E-4
4.000000E-8	-1.747220E-4
4.010000E-8	-1.884406E-3
4.020000E-8	-2.141372E-3
4.030000E-8	-1.803890E-3
4.040000E-8	-2.449595E-4
4.050000E-8	7.486443E-4
4.060000E-8	1.694281E-3
4.070000E-8	2.506295E-3
4.080000E-8	3.455358E-3
4.090000E-8	4.508921E-3
4.100000E-8	4.541470E-3
4.110000E-8	3.902480E-3
4.120000E-8	2.920868E-3
4.130000E-8	9.405126E-4
4.140000E-8	-3.545986E-4
4.150000E-8	-1.298522E-3
4.160000E-8	-1.802177E-3
4.170000E-8	-1.798750E-3
4.180000E-8	-6.167044E-4
4.190000E-8	4.745467E-4
4.200000E-8	1.514404E-3
4.210000E-8	1.836469E-3
4.220000E-8	2.566254E-3
4.230000E-8	4.351315E-3
4.240000E-8	4.690510E-3
4.250000E-8	4.245102E-3
4.260000E-8	2.663901E-3
4.270000E-8	1.003898E-3
4.280000E-8	-1.610172E-4
4.290000E-8	-5.755898E-4
4.300000E-8	-1.913529E-3
4.310000E-8	-1.954643E-3
4.320000E-8	-1.346489E-3
4.330000E-8	5.824726E-4
4.340000E-8	9.336601E-4
4.350000E-8	1.711412E-3
4.360000E-8	2.835212E-3
4.370000E-8	4.210840E-3
4.380000E-8	4.938911E-3
4.390000E-8	4.652822E-3
4.400000E-8	3.780849E-3
4.410000E-8	2.297296E-3
4.420000E-8	9.079635E-4
4.430000E-8	-4.196968E-4
4.440000E-8	-1.668554E-3
4.450000E-8	-2.004324E-3
4.460000E-8	-1.634292E-3
4.470000E-8	-1.010583E-4
4.480000E-8	1.046725E-3
4.490000E-8	1.200905E-3
4.500000E-8	2.422353E-3
4.510000E-8	3.104171E-3
4.520000E-8	4.034389E-3
4.530000E-8	4.039529E-3
4.540000E-8	3.777423E-3
4.550000E-8	2.216780E-3
4.560000E-8	1.483568E-3
4.570000E-8	-8.221409E-5
4.580000E-8	-8.908020E-4
4.590000E-8	-1.474973E-3
4.600000E-8	-1.709669E-3
4.610000E-8	-7.760236E-4
4.620000E-8	4.694073E-4
4.630000E-8	1.980370E-3
4.640000E-8	2.439484E-3
4.650000E-8	2.970548E-3
4.660000E-8	4.003553E-3
4.670000E-8	4.053233E-3
4.680000E-8	4.678519E-3
4.690000E-8	3.087039E-3
4.700000E-8	1.824477E-3
4.710000E-8	3.597683E-4
4.720000E-8	-9.591897E-5
4.730000E-8	-7.845892E-4
4.740000E-8	-1.528079E-3
4.750000E-8	-1.445850E-3
4.760000E-8	-3.767323E-5
4.770000E-8	7.452180E-4
4.780000E-8	1.483568E-3
4.790000E-8	2.137976E-3
4.800000E-8	3.287473E-3
4.810000E-8	4.308487E-3
4.820000E-8	4.469519E-3
4.830000E-8	3.849373E-3
4.840000E-8	1.992362E-3
4.850000E-8	9.644961E-4
4.860000E-8	2.312850E-4
4.870000E-8	-6.475404E-4
4.880000E-8	-1.880980E-3
4.890000E-8	-1.821021E-3
4.900000E-8	-4.967867E-4
4.910000E-8	6.081692E-4
4.920000E-8	8.599964E-4
4.930000E-8	1.865592E-3
4.940000E-8	2.509721E-3
4.950000E-8	3.405678E-3
4.960000E-8	4.389003E-3
4.970000E-8	4.337610E-3
4.980000E-8	3.133293E-3
4.990000E-8	1.803920E-3
5.000000E-8	7.025270E-5
5.010000E-8	-8.428349E-4
5.020000E-8	-2.310970E-3
5.030000E-8	-2.091692E-3
5.040000E-8	-9.781706E-4
5.050000E-8	6.167348E-4
5.060000E-8	5.122351E-4
5.070000E-8	1.942682E-3
5.080000E-8	2.634778E-3
5.090000E-8	3.873357E-3
5.100000E-8	4.793297E-3
5.110000E-8	4.001840E-3
5.120000E-8	3.357711E-3
5.130000E-8	2.530279E-3
5.140000E-8	1.361938E-3
5.150000E-8	1.518652E-8
5.160000E-8	-8.068596E-4
5.170000E-8	-1.848431E-3
5.180000E-8	-1.920381E-3
5.190000E-8	-6.749502E-4
5.200000E-8	6.475708E-4
5.210000E-8	1.120389E-3
5.220000E-8	2.146542E-3
5.230000E-8	3.129867E-3
5.240000E-8	4.120045E-3
5.250000E-8	4.414700E-3
5.260000E-8	3.765431E-3
5.270000E-8	2.785532E-3
5.280000E-8	1.399626E-3
5.290000E-8	5.687677E-4
5.300000E-8	-5.533193E-4
5.310000E-8	-1.714808E-3
5.320000E-8	-1.622300E-3
5.330000E-8	-1.022711E-3
5.340000E-8	1.284984E-4
5.350000E-8	1.289987E-3
5.360000E-8	1.863879E-3
5.370000E-8	2.331558E-3
5.380000E-8	3.755152E-3
5.390000E-8	4.546609E-3
5.400000E-8	4.349602E-3
5.410000E-8	2.862622E-3
5.420000E-8	2.127698E-3
5.430000E-8	8.377260E-4
5.440000E-8	-1.644434E-4
5.450000E-8	-9.353429E-4
5.460000E-8	-1.892971E-3
5.470000E-8	-1.519513E-3
5.480000E-8	-2.775086E-4
5.490000E-8	9.559306E-4
5.500000E-8	1.140946E-3
5.510000E-8	2.482312E-3
5.520000E-8	3.196678E-3
5.530000E-8	3.751726E-3
5.540000E-8	4.568880E-3
5.550000E-8	3.996701E-3
5.560000E-8	2.324705E-3
5.570000E-8	6.098823E-4
5.580000E-8	-4.505327E-4
5.590000E-8	-8.359825E-4
5.600000E-8	-1.584612E-3
5.610000E-8	-1.584612E-3
5.620000E-8	-3.323282E-4
5.630000E-8	6.682648E-5
5.640000E-8	1.125528E-3
5.650000E-8	2.156821E-3
5.660000E-8	2.968835E-3
5.670000E-8	4.197135E-3
5.680000E-8	4.711068E-3
5.690000E-8	4.621986E-3
5.700000E-8	3.092179E-3
5.710000E-8	1.872444E-3
5.720000E-8	4.676942E-4
5.730000E-8	-2.757955E-4
5.740000E-8	-1.555489E-3
5.750000E-8	-1.507522E-3
5.760000E-8	-1.272826E-3
5.770000E-8	2.278588E-4
5.780000E-8	1.101545E-3
5.790000E-8	1.178635E-3
5.800000E-8	2.569680E-3
5.810000E-8	3.688341E-3
5.820000E-8	4.553462E-3
5.830000E-8	4.570593E-3
5.840000E-8	3.671210E-3
5.850000E-8	2.670754E-3
5.860000E-8	1.039873E-3
5.870000E-8	4.488500E-4
5.880000E-8	-1.553776E-3
5.890000E-8	-1.464694E-3
5.900000E-8	-1.260834E-3
5.910000E-8	-5.104916E-4
5.920000E-8	4.951040E-4
5.930000E-8	9.473650E-4
5.940000E-8	2.201362E-3
5.950000E-8	3.066482E-3
5.960000E-8	3.731169E-3
5.970000E-8	4.301634E-3
5.980000E-8	4.102914E-3
5.990000E-8	3.025367E-3
6.000000E-8	1.613765E-3
6.010000E-8	6.509970E-4
6.020000E-8	-6.286962E-4
6.030000E-8	-1.416727E-3
6.040000E-8	-1.851857E-3
6.050000E-8	-6.304093E-4
6.060000E-8	4.848253E-4
6.070000E-8	1.445880E-3
6.080000E-8	2.559402E-3
6.090000E-8	2.965409E-3
6.100000E-8	3.575276E-3
6.110000E-8	4.072078E-3
6.120000E-8	4.479798E-3
6.130000E-8	3.549579E-3
6.140000E-8	1.490421E-3
6.150000E-8	5.208006E-4
6.160000E-8	-2.449595E-4
6.170000E-8	-1.267686E-3
6.180000E-8	-1.492104E-3
6.190000E-8	-1.502382E-3
6.200000E-8	-1.027714E-4
6.210000E-8	1.199329E-4
6.220000E-8	8.822668E-4
6.230000E-8	1.925551E-3
6.240000E-8	2.984253E-3
6.250000E-8	4.087496E-3
6.260000E-8	4.414700E-3
6.270000E-8	3.349145E-3
6.280000E-8	2.091723E-3
6.290000E-8	6.681281E-4
6.300000E-8	1.781786E-4
6.310000E-8	-7.057861E-4
6.320000E-8	-2.191053E-3
6.330000E-8	-1.733652E-3
6.340000E-8	-1.156334E-3
6.350000E-8	-7.364854E-5
6.360000E-8	7.109558E-4
6.370000E-8	1.884436E-3
6.380000E-8	2.665614E-3
6.390000E-8	3.684915E-3
6.400000E-8	4.094348E-3
6.410000E-8	4.371872E-3
6.420000E-8	3.323449E-3
6.430000E-8	1.075848E-3
6.440000E-8	9.081002E-5
6.450000E-8	-1.318943E-4
6.460000E-8	-4.950736E-4
6.470000E-8	-1.461268E-3
6.480000E-8	-1.284817E-3
6.490000E-8	-2.946397E-4
6.500000E-8	7.417918E-4
6.510000E-8	1.641175E-3
6.520000E-8	2.430918E-3
6.530000E-8	3.278908E-3
6.540000E-8	4.120045E-3
6.550000E-8	4.457527E-3
6.560000E-8	3.789415E-3
6.570000E-8	2.112280E-3
6.580000E-8	6.355790E-4
6.590000E-8	2.638341E-4
6.600000E-8	-1.158047E-3
6.610000E-8	-1.786759E-3
6.620000E-8	-1.815881E-3
6.630000E-8	-8.291301E-4
6.640000E-8	4.025960E-4
6.650000E-8	6.047430E-4
6.660000E-8	2.076305E-3
6.670000E-8	3.224088E-3
6.680000E-8	3.892201E-3
6.690000E-8	4.114905E-3
6.700000E-8	3.986422E-3
6.710000E-8	2.862622E-3
6.720000E-8	1.180348E-3
6.730000E-8	2.432768E-4
6.740000E-8	-4.623878E-5
6.750000E-8	-1.396169E-3
6.760000E-8	-1.846717E-3
6.770000E-8	-1.534931E-3
6.780000E-8	-4.368279E-4
6.790000E-8	4.300058E-4
6.800000E-8	1.942682E-3
6.810000E-8	2.593664E-3
6.820000E-8	3.705472E-3
6.830000E-8	4.392429E-3
6.840000E-8	4.411273E-3
6.850000E-8	3.227514E-3
6.860000E-8	1.995788E-3
6.870000E-8	7.539203E-5
6.880000E-8	-1.111793E-3
6.890000E-8	-1.305375E-3
6.900000E-8	-2.314396E-3
6.910000E-8	-1.730226E-3
6.920000E-8	2.158670E-4
6.930000E-8	7.041034E-4
6.940000E-8	1.380782E-3
6.950000E-8	2.326419E-3
6.960000E-8	3.090466E-3
6.970000E-8	4.748756E-3
6.980000E-8	4.837838E-3
6.990000E-8	4.125184E-3
7.000000E-8	2.324705E-3
7.010000E-8	7.075296E-4
7.020000E-8	-4.452567E-5
7.030000E-8	-7.691712E-4
7.040000E-8	-1.336211E-3
7.050000E-8	-1.826160E-3
7.060000E-8	-1.454415E-3
7.070000E-8	5.312160E-5
7.080000E-8	9.439388E-4
7.090000E-8	2.215066E-3
7.100000E-8	2.845491E-3
7.110000E-8	3.986422E-3
7.120000E-8	4.630552E-3
7.130000E-8	4.113192E-3
7.140000E-8	2.850630E-3
7.150000E-8	1.660019E-3
7.160000E-8	1.644737E-4
7.170000E-8	-4.796556E-4
7.180000E-8	-1.807316E-3
7.190000E-8	-2.425749E-3
7.200000E-8	-1.534931E-3
7.210000E-8	-7.383352E-4
7.220000E-8	1.182198E-4
7.230000E-8	1.349946E-3
7.240000E-8	2.009493E-3
7.250000E-8	2.800950E-3
7.260000E-8	4.356454E-3
7.270000E-8	4.111479E-3
7.280000E-8	3.777423E-3
7.290000E-8	2.833499E-3
7.300000E-8	1.552093E-3
7.310000E-8	-2.072711E-4
7.320000E-8	-6.715239E-4
7.330000E-8	-1.493817E-3
7.340000E-8	-1.481825E-3
7.350000E-8	-8.925151E-4
7.360000E-8	-3.083446E-4
7.370000E-8	1.062143E-3
7.380000E-8	2.631352E-3
7.390000E-8	3.174408E-3
7.400000E-8	4.104627E-3
7.410000E-8	4.389003E-3
7.420000E-8	4.322192E-3
7.430000E-8	2.907163E-3
7.440000E-8	1.451019E-3
7.450000E-8	7.760540E-4
7.460000E-8	-4.042788E-4
7.470000E-8	-1.392743E-3
7.480000E-8	-1.963209E-3
7.490000E-8	-1.680546E-3
7.500000E-8	-7.520401E-4
7.510000E-8	6.749805E-4
7.520000E-8	1.779936E-3
7.530000E-8	2.460041E-3
7.540000E-8	3.866504E-3
7.550000E-8	4.832699E-3
7.560000E-8	4.507208E-3
7.570000E-8	3.470776E-3
7.580000E-8	2.341837E-3
7.590000E-8	1.055291E-3
7.600000E-8	-5.139178E-4
7.610000E-8	-5.635980E-4
7.620000E-8	-1.598316E-3
7.630000E-8	-1.510948E-3
7.640000E-8	-8.376956E-4
7.650000E-8	6.852592E-4
7.660000E-8	1.617191E-3
7.670000E-8	2.749557E-3
7.680000E-8	2.840352E-3
7.690000E-8	3.633522E-3
7.700000E-8	4.411273E-3
7.710000E-8	4.094348E-3
7.720000E-8	2.429205E-3
7.730000E-8	1.509265E-3
7.740000E-8	4.865384E-4
7.750000E-8	-2.603775E-4
7.760000E-8	-1.137490E-3
7.770000E-8	-1.695964E-3
7.780000E-8	-6.920813E-4
7.790000E-8	7.829065E-4
7.800000E-8	1.111824E-3
7.810000E-8	1.911846E-3
7.820000E-8	1.983797E-3
7.830000E-8	3.517030E-3
7.840000E-8	3.809972E-3
7.850000E-8	4.515773E-3
7.860000E-8	3.787701E-3
7.870000E-8	2.478885E-3
7.880000E-8	7.897589E-4
7.890000E-8	-3.734428E-4
7.900000E-8	-1.122072E-3
7.910000E-8	-2.244159E-3
7.920000E-8	-1.682259E-3
7.930000E-8	-4.556721E-4
7.940000E-8	4.231534E-4
7.950000E-8	1.755953E-3
7.960000E-8	2.057460E-3
7.970000E-8	2.991105E-3
7.980000E-8	3.989848E-3
7.990000E-8	3.755152E-3
8.000000E-8	3.390260E-3
8.010000E-8	2.314427E-3
8.020000E-8	8.771275E-4
8.030000E-8	3.512027E-4
8.040000E-8	-8.119990E-4
8.050000E-8	-1.833013E-3
8.060000E-8	-2.030020E-3
8.070000E-8	-8.068596E-4
8.080000E-8	5.721939E-4
8.090000E-8	9.456519E-4
8.100000E-8	1.916985E-3
8.110000E-8	3.095605E-3
8.120000E-8	3.804833E-3
8.130000E-8	5.111935E-3
8.140000E-8	3.972717E-3
8.150000E-8	3.208670E-3
8.160000E-8	1.444167E-3
8.170000E-8	3.049488E-4
8.180000E-8	1.010887E-4
8.190000E-8	-1.020998E-3
8.200000E-8	-1.493817E-3
8.210000E-8	-9.730313E-4
8.220000E-8	-1.199025E-4
8.230000E-8	3.957436E-4
8.240000E-8	2.293869E-3
8.250000E-8	2.874614E-3
8.260000E-8	3.763718E-3
8.270000E-8	4.279364E-3
8.280000E-8	4.426691E-3
8.290000E-8	3.268629E-3
8.300000E-8	2.228771E-3
8.310000E-8	1.012463E-3
8.320000E-8	5.773333E-4
8.330000E-8	-7.845892E-4
8.340000E-8	-1.762775E-3
8.350000E-8	-1.824447E-3
8.360000E-8	-7.760236E-4
8.370000E-8	3.717601E-4
8.380000E-8	1.325962E-3
8.390000E-8	1.879297E-3
8.400000E-8	2.987679E-3
8.410000E-8	3.727743E-3
8.420000E-8	4.539757E-3
8.430000E-8	3.811685E-3
8.440000E-8	2.382951E-3
8.450000E-8	1.199192E-3
8.460000E-8	8.719882E-4
8.470000E-8	-1.507385E-4
8.480000E-8	-1.850144E-3
8.490000E-8	-2.096831E-3
8.500000E-8	-1.562341E-3
8.510000E-8	-1.798614E-4
8.520000E-8	2.364244E-4
8.530000E-8	2.256181E-3
8.540000E-8	2.862622E-3
8.550000E-8	3.744874E-3
8.560000E-8	4.298208E-3
8.570000E-8	4.361593E-3
8.580000E-8	3.549579E-3
8.590000E-8	2.299009E-3
8.600000E-8	5.154517E-6
8.610000E-8	-3.717297E-4
8.620000E-8	-1.279678E-3
8.630000E-8	-1.646284E-3
8.640000E-8	-1.533218E-3
8.650000E-8	-2.004187E-4
8.660000E-8	6.972510E-4
8.670000E-8	1.581216E-3
8.680000E-8	2.429205E-3
8.690000E-8	3.302891E-3
8.700000E-8	4.337610E-3
8.710000E-8	4.539757E-3
8.720000E-8	3.688341E-3
8.730000E-8	2.830073E-3
8.740000E-8	1.452732E-3
8.750000E-8	7.025270E-5
8.760000E-8	-1.337924E-3
8.770000E-8	-1.689111E-3
8.780000E-8	-1.588038E-3
8.790000E-8	-4.368279E-4
8.800000E-8	3.306454E-4
8.810000E-8	1.569224E-3
8.820000E-8	2.134550E-3
8.830000E-8	2.645057E-3
8.840000E-8	3.606112E-3
8.850000E-8	4.508921E-3
8.860000E-8	4.680232E-3
8.870000E-8	3.119589E-3
8.880000E-8	1.839895E-3
8.890000E-8	5.242268E-4
8.900000E-8	-2.106973E-4
8.910000E-8	-1.680546E-3
8.920000E-8	-2.350372E-3
8.930000E-8	-1.498956E-3
8.940000E-8	-5.773029E-4
8.950000E-8	6.253003E-4
8.960000E-8	8.497178E-4
8.970000E-8	2.182517E-3
8.980000E-8	3.513604E-3
8.990000E-8	4.335897E-3
9.000000E-8	4.400995E-3
9.010000E-8	4.251954E-3
9.020000E-8	2.288730E-3
9.030000E-8	5.653415E-4
9.040000E-8	-4.762294E-4
9.050000E-8	-1.517800E-3
9.060000E-8	-1.536644E-3
9.070000E-8	-1.301948E-3
9.080000E-8	-5.396145E-4
9.090000E-8	6.629888E-4
9.100000E-8	1.231741E-3
9.110000E-8	2.069452E-3
9.120000E-8	2.823220E-3
9.130000E-8	3.714038E-3
9.140000E-8	4.680232E-3
9.150000E-8	3.792841E-3
9.160000E-8	3.246359E-3
9.170000E-8	1.682289E-3
9.180000E-8	3.409241E-4
9.190000E-8	-4.522459E-4
9.200000E-8	-1.721660E-3
9.210000E-8	-1.963209E-3
9.220000E-8	-1.331071E-3
9.230000E-8	2.141539E-4
9.240000E-8	8.480046E-4
9.250000E-8	1.685715E-3
9.260000E-8	2.773540E-3
9.270000E-8	4.010406E-3
9.280000E-8	4.796723E-3
9.290000E-8	4.430118E-3
9.300000E-8	3.326875E-3
9.310000E-8	2.151681E-3
9.320000E-8	-6.679610E-5
9.330000E-8	-8.411218E-4
9.340000E-8	-1.452702E-3
9.350000E-8	-1.867275E-3
9.360000E-8	-1.457841E-3
9.370000E-8	-9.199249E-4
9.380000E-8	3.666207E-4
9.390000E-8	1.603486E-3
9.400000E-8	2.036903E-3
9.410000E-8	3.479342E-3
9.420000E-8	4.097774E-3
9.430000E-8	4.923493E-3
9.440000E-8	4.214266E-3
9.450000E-8	2.436058E-3
9.460000E-8	5.225137E-4
9.470000E-8	-2.739457E-5
9.480000E-8	-6.869419E-4
9.490000E-8	-1.010720E-3
9.500000E-8	-1.747357E-3
9.510000E-8	-9.182118E-4
9.520000E-8	3.340716E-4
9.530000E-8	1.122102E-3
9.540000E-8	2.376099E-3
9.550000E-8	2.711868E-3
9.560000E-8	3.768857E-3
9.570000E-8	4.279364E-3
9.580000E-8	4.090922E-3
9.590000E-8	2.963696E-3
9.600000E-8	1.838182E-3
9.610000E-8	3.700469E-4
9.620000E-8	4.969538E-5
9.630000E-8	-1.452702E-3
9.640000E-8	-2.071135E-3
9.650000E-8	-1.649710E-3
9.660000E-8	-1.438861E-4
9.670000E-8	1.003898E-3
9.680000E-8	1.790215E-3
9.690000E-8	2.991105E-3
9.700000E-8	3.505038E-3
9.710000E-8	4.361593E-3
9.720000E-8	4.087496E-3
9.730000E-8	3.714038E-3
9.740000E-8	1.713125E-3
9.750000E-8	6.835461E-4
9.760000E-8	-3.151971E-4
9.770000E-8	-1.185457E-3
9.780000E-8	-1.670267E-3
9.790000E-8	-1.329358E-3
9.800000E-8	-5.550325E-4
9.810000E-8	2.228562E-5
9.820000E-8	1.072422E-3
9.830000E-8	2.048895E-3
9.840000E-8	3.352571E-3
9.850000E-8	4.234823E-3
9.860000E-8	4.640830E-3
9.870000E-8	4.233110E-3
9.880000E-8	2.984253E-3
9.890000E-8	1.430462E-3
9.900000E-8	4.197271E-4
9.910000E-8	-6.508299E-5
9.920000E-8	-1.985479E-3
9.930000E-8	-2.653592E-3
9.940000E-8	-1.245416E-3
9.950000E-8	4.626916E-5
9.960000E-8	1.005611E-3
9.970000E-8	1.719978E-3
9.980000E-8	2.384664E-3
9.990000E-8	2.475459E-3
1.000000E-7	4.200561E-3
1.001000E-7	4.524339E-3
1.002000E-7	3.280621E-3
1.003000E-7	1.752527E-3
1.004000E-7	4.111616E-4
1.005000E-7	-9.420586E-5
1.006000E-7	-1.204301E-3
1.007000E-7	-2.050577E-3
1.008000E-7	-1.113506E-3
1.009000E-7	-2.381071E-4
1.010000E-7	7.948982E-4
1.011000E-7	1.711412E-3
1.012000E-7	2.489164E-3
1.013000E-7	3.266916E-3
1.014000E-7	4.202274E-3
1.015000E-7	3.842521E-3
1.016000E-7	3.450219E-3
1.017000E-7	2.240763E-3
1.018000E-7	1.151225E-3
1.019000E-7	-2.912135E-4
1.020000E-7	-1.178604E-3
1.021000E-7	-1.815881E-3
1.022000E-7	-1.990619E-3
1.023000E-7	-9.387691E-4
1.024000E-7	-1.216156E-4
1.025000E-7	9.370864E-4
1.026000E-7	1.928977E-3
1.027000E-7	3.071621E-3
1.028000E-7	3.909332E-3
1.029000E-7	4.793297E-3
1.030000E-7	3.868218E-3
1.031000E-7	2.848917E-3
1.032000E-7	1.973518E-3
1.033000E-7	7.469312E-4
1.034000E-7	-9.763208E-5
1.035000E-7	-1.281391E-3
1.036000E-7	-1.714808E-3
1.037000E-7	-1.418440E-3
1.038000E-7	-4.762294E-4
1.039000E-7	6.989641E-4
1.040000E-7	1.721691E-3
1.041000E-7	2.641631E-3
1.042000E-7	3.481055E-3
1.043000E-7	4.209126E-3
1.044000E-7	4.668240E-3
1.045000E-7	3.989848E-3
1.046000E-7	2.749557E-3
1.047000E-7	7.126690E-4
1.048000E-7	2.742495E-5
1.049000E-7	-1.139203E-3
1.050000E-7	-2.006037E-3
1.051000E-7	-2.461724E-3
1.052000E-7	-7.486139E-4
1.053000E-7	1.233591E-4
1.054000E-7	1.084414E-3
1.055000E-7	2.689598E-3
1.056000E-7	3.057917E-3
1.057000E-7	3.768857E-3
1.058000E-7	4.539757E-3
1.059000E-7	4.433544E-3
1.060000E-7	2.941425E-3
1.061000E-7	1.269430E-3
1.062000E-7	3.409241E-4
1.063000E-7	-4.676638E-4
1.064000E-7	-1.985479E-3
1.065000E-7	-2.030020E-3
1.066000E-7	-1.502382E-3
1.067000E-7	-2.244022E-4
1.068000E-7	5.516366E-4
1.069000E-7	1.413331E-3
1.070000E-7	2.204788E-3
1.071000E-7	3.628382E-3
1.072000E-7	4.164586E-3
1.073000E-7	3.943594E-3
1.074000E-7	3.013376E-3
1.075000E-7	1.882723E-3
1.076000E-7	8.548571E-4
1.077000E-7	-2.569513E-4
1.078000E-7	-6.372617E-4
1.079000E-7	-1.968348E-3
1.080000E-7	-1.428719E-3
1.081000E-7	-4.316885E-4
1.082000E-7	5.122351E-4
1.083000E-7	1.156364E-3
1.084000E-7	1.964952E-3
1.085000E-7	3.306318E-3
1.086000E-7	4.210840E-3
1.087000E-7	4.144028E-3
1.088000E-7	3.505038E-3
1.089000E-7	2.800950E-3
1.090000E-7	1.565798E-3
1.091000E-7	8.580737E-6
1.092000E-7	-8.017203E-4
1.093000E-7	-1.862135E-3
1.094000E-7	-1.641144E-3
1.095000E-7	-9.216380E-4
1.096000E-7	2.329981E-4
1.097000E-7	5.088089E-4
1.098000E-7	1.745674E-3
1.099000E-7	2.215066E-3
1.100000E-7	3.484481E-3
1.101000E-7	4.263946E-3
1.102000E-7	4.246815E-3
1.103000E-7	3.696907E-3
1.104000E-7	2.165386E-3
1.105000E-7	3.631945E-4
1.106000E-7	-5.019260E-4
1.107000E-7	-9.730313E-4
1.108000E-7	-2.143085E-3
1.109000E-7	-1.968348E-3
1.110000E-7	-5.087785E-4
1.111000E-7	7.023903E-4
1.112000E-7	1.709699E-3
1.113000E-7	2.321279E-3
1.114000E-7	3.595833E-3
1.115000E-7	4.339323E-3
1.116000E-7	4.553462E-3
1.117000E-7	3.220662E-3
1.118000E-7	2.233911E-3
1.119000E-7	6.390052E-4
1.120000E-7	-3.460330E-4
1.121000E-7	-1.026138E-3
1.122000E-7	-2.095118E-3
1.123000E-7	-1.495530E-3
1.124000E-7	-4.042788E-4
1.125000E-7	1.319247E-4
1.126000E-7	1.504126E-3
1.127000E-7	2.571393E-3
1.128000E-7	2.771827E-3
1.129000E-7	3.642087E-3
1.130000E-7	5.170181E-3
1.131000E-7	4.716207E-3
1.132000E-7	3.155564E-3
1.133000E-7	1.759379E-3
1.134000E-7	5.721939E-4
1.135000E-7	-1.197658E-5
1.136000E-7	-1.699390E-3
1.137000E-7	-2.127667E-3
1.138000E-7	-1.432145E-3
1.139000E-7	2.432768E-4
1.140000E-7	3.974567E-4
1.141000E-7	1.615478E-3
1.142000E-7	2.083157E-3
1.143000E-7	2.780393E-3
1.144000E-7	4.428405E-3
1.145000E-7	4.795010E-3
1.146000E-7	3.779136E-3
1.147000E-7	2.432631E-3
1.148000E-7	7.366525E-4
1.149000E-7	2.398506E-4
1.150000E-7	-1.533218E-3
1.151000E-7	-2.348659E-3
1.152000E-7	-1.824447E-3
1.153000E-7	-4.933605E-4
1.154000E-7	7.435049E-4
1.155000E-7	1.695994E-3
1.156000E-7	2.389804E-3
1.157000E-7	3.135007E-3
1.158000E-7	3.866504E-3
1.159000E-7	4.075504E-3
1.160000E-7	3.833955E-3
1.161000E-7	2.855770E-3
1.162000E-7	8.737013E-4
1.163000E-7	-2.946397E-4
1.164000E-7	-4.779425E-4
1.165000E-7	-1.762775E-3
1.166000E-7	-2.059143E-3
1.167000E-7	-1.101515E-3
1.168000E-7	-2.021318E-4
1.169000E-7	1.075848E-3
1.170000E-7	1.964952E-3
1.171000E-7	2.170526E-3
1.172000E-7	3.198392E-3
1.173000E-7	4.678519E-3
1.174000E-7	5.062255E-3
1.175000E-7	4.089209E-3
1.176000E-7	1.949534E-3
1.177000E-7	3.666207E-4
1.178000E-7	6.682648E-5
1.179000E-7	-1.195736E-3
1.180000E-7	-1.899824E-3
1.181000E-7	-1.815881E-3
1.182000E-7	-4.539590E-4
1.183000E-7	6.647019E-4
1.184000E-7	1.755953E-3
1.185000E-7	2.555975E-3
1.186000E-7	3.155564E-3
1.187000E-7	4.424978E-3
1.188000E-7	4.418126E-3
1.189000E-7	3.515317E-3
1.190000E-7	2.662188E-3
1.191000E-7	9.319470E-4
1.192000E-7	4.659811E-4
1.193000E-7	-4.419672E-4
1.194000E-7	-1.524653E-3
1.195000E-7	-1.774767E-3
1.196000E-7	-6.818026E-4
1.197000E-7	2.004491E-4
1.198000E-7	1.147799E-3
1.199000E-7	1.617191E-3
1.200000E-7	2.453189E-3
1.201000E-7	3.030507E-3
1.202000E-7	4.263946E-3
1.203000E-7	4.135463E-3
1.204000E-7	2.915728E-3
1.205000E-7	1.505839E-3
1.206000E-7	3.974567E-4
1.207000E-7	-8.735342E-5
1.208000E-7	-1.519513E-3
1.209000E-7	-1.704529E-3
1.210000E-7	-1.870701E-3
1.211000E-7	-2.518120E-4
1.212000E-7	1.034734E-3
1.213000E-7	1.389347E-3
1.214000E-7	2.778680E-3
1.215000E-7	3.815111E-3
1.216000E-7	4.491790E-3
1.217000E-7	4.495216E-3
1.218000E-7	3.775710E-3
1.219000E-7	2.043755E-3
1.220000E-7	5.156613E-4
1.221000E-7	1.696131E-4
1.222000E-7	-6.304093E-4
1.223000E-7	-9.524740E-4
1.224000E-7	-1.468120E-3
1.225000E-7	-2.518120E-4
1.226000E-7	5.105220E-4
1.227000E-7	1.360225E-3
1.228000E-7	2.391517E-3
1.229000E-7	3.287473E-3
1.230000E-7	4.132037E-3
1.231000E-7	4.330757E-3
1.232000E-7	3.758579E-3
1.233000E-7	3.104171E-3
1.234000E-7	1.005611E-3
1.235000E-7	-2.946397E-4
1.236000E-7	-1.295096E-3
1.237000E-7	-1.459555E-3
1.238000E-7	-2.204757E-3
1.239000E-7	-1.892971E-3
1.240000E-7	-5.190571E-4
1.241000E-7	1.024455E-3
1.242000E-7	1.790215E-3
1.243000E-7	2.807802E-3
1.244000E-7	4.054947E-3
1.245000E-7	4.390716E-3
1.246000E-7	4.080643E-3
1.247000E-7	3.158990E-3
1.248000E-7	2.614221E-3
1.249000E-7	1.182061E-3
1.250000E-7	1.507689E-4
1.251000E-7	-1.044982E-3
1.252000E-7	-2.161930E-3
1.253000E-7	-1.572620E-3
1.254000E-7	-5.978602E-4
1.255000E-7	7.400787E-4
1.256000E-7	1.394487E-3
1.257000E-7	2.233911E-3
1.258000E-7	3.320022E-3
1.259000E-7	4.339323E-3
1.260000E-7	4.673379E-3
1.261000E-7	4.078930E-3
1.262000E-7	2.549123E-3
1.263000E-7	1.074135E-3
1.264000E-7	2.347113E-4
1.265000E-7	-1.094662E-3
1.266000E-7	-1.961496E-3
1.267000E-7	-1.824447E-3
1.268000E-7	-1.207727E-3
1.269000E-7	-2.910768E-5
1.270000E-7	6.270134E-4
1.271000E-7	2.254468E-3
1.272000E-7	2.876327E-3
1.273000E-7	3.479342E-3
1.274000E-7	3.907619E-3
1.275000E-7	4.378724E-3
1.276000E-7	2.855770E-3
1.277000E-7	1.439028E-3
1.278000E-7	2.571184E-5
1.279000E-7	-2.209760E-4
1.280000E-7	-1.123785E-3
1.281000E-7	-1.639431E-3
1.282000E-7	-1.428719E-3
1.283000E-7	-8.906653E-5
1.284000E-7	7.126690E-4
1.285000E-7	1.457872E-3
1.286000E-7	2.386377E-3
1.287000E-7	3.667784E-3
1.288000E-7	4.128610E-3
1.289000E-7	5.060542E-3
1.290000E-7	3.914472E-3
1.291000E-7	2.722147E-3
1.292000E-7	1.034734E-3
1.293000E-7	-5.875815E-4
1.294000E-7	-1.207727E-3
1.295000E-7	-1.865562E-3
1.296000E-7	-1.286530E-3
1.297000E-7	-9.045069E-4
1.298000E-7	2.929570E-4
1.299000E-7	1.235168E-3
1.300000E-7	2.071165E-3
1.301000E-7	2.883179E-3
1.302000E-7	3.614677E-3
1.303000E-7	4.330757E-3
1.304000E-7	4.366733E-3
1.305000E-7	2.461754E-3
1.306000E-7	5.516366E-4
1.307000E-7	-5.823055E-5
1.308000E-7	-1.473123E-4
1.309000E-7	-8.805234E-4
1.310000E-7	-1.538358E-3
1.311000E-7	-1.509235E-3
1.312000E-7	-2.363940E-4
1.313000E-7	3.100881E-4
1.314000E-7	1.648027E-3
1.315000E-7	2.636491E-3
1.316000E-7	3.285760E-3
1.317000E-7	4.409560E-3
1.318000E-7	4.666527E-3
1.319000E-7	3.724316E-3
1.320000E-7	1.697707E-3
1.321000E-7	1.764655E-4
1.322000E-7	-9.182118E-4
1.323000E-7	-9.233511E-4
1.324000E-7	-1.733652E-3
1.325000E-7	-1.725087E-3
1.326000E-7	-9.267773E-4
1.327000E-7	9.113897E-4
1.328000E-7	1.540101E-3
1.329000E-7	2.504582E-3
1.330000E-7	2.602229E-3
1.331000E-7	3.534161E-3
1.332000E-7	4.303348E-3
1.333000E-7	4.200561E-3
1.334000E-7	2.782106E-3
1.335000E-7	1.701133E-3
1.336000E-7	1.010887E-4
1.337000E-7	-9.027938E-4
1.338000E-7	-2.047151E-3
1.339000E-7	-1.737078E-3
1.340000E-7	-9.336298E-4
1.341000E-7	1.816048E-4
1.342000E-7	1.096406E-3
1.343000E-7	2.030051E-3
1.344000E-7	2.658762E-3
1.345000E-7	4.003553E-3
1.346000E-7	4.627125E-3
1.347000E-7	4.702502E-3
1.348000E-7	3.580415E-3
1.349000E-7	2.120845E-3
1.350000E-7	5.996037E-4
1.351000E-7	-1.181894E-4
1.352000E-7	-9.593264E-4
1.353000E-7	-1.719947E-3
1.354000E-7	-1.084383E-3
1.355000E-7	-4.623878E-5
1.356000E-7	6.818330E-4
1.357000E-7	1.245446E-3
1.358000E-7	2.929433E-3
1.359000E-7	3.355998E-3
1.360000E-7	4.144028E-3
1.361000E-7	4.397569E-3
1.362000E-7	3.463924E-3
1.363000E-7	2.245902E-3
1.364000E-7	6.424314E-4
1.365000E-7	2.398506E-4
1.366000E-7	-4.179837E-4
1.367000E-7	-1.236850E-3
1.368000E-7	-1.937512E-3
1.369000E-7	-1.043269E-3
1.370000E-7	-2.312547E-4
1.371000E-7	7.366525E-4
1.372000E-7	1.553806E-3
1.373000E-7	2.389804E-3
1.374000E-7	3.671210E-3
1.375000E-7	4.476372E-3
1.376000E-7	3.566710E-3
1.377000E-7	2.794098E-3
1.378000E-7	1.012463E-3
1.379000E-7	-2.860742E-4
1.380000E-7	-2.209760E-4
1.381000E-7	-1.075818E-3
1.382000E-7	-1.615448E-3
1.383000E-7	-1.659988E-3
1.384000E-7	-1.404598E-4
1.385000E-7	1.199192E-3
1.386000E-7	1.812486E-3
1.387000E-7	2.345263E-3
1.388000E-7	3.936742E-3
1.389000E-7	4.526052E-3
1.390000E-7	4.849830E-3
1.391000E-7	3.611251E-3
1.392000E-7	2.281878E-3
1.393000E-7	8.839800E-4
1.394000E-7	3.751863E-4
1.395000E-7	-9.490478E-4
1.396000E-7	-1.546923E-3
1.397000E-7	-2.033446E-3
1.398000E-7	-8.085727E-4
1.399000E-7	5.773333E-4
1.400000E-7	1.298553E-3
1.401000E-7	2.384664E-3
1.402000E-7	3.035646E-3
1.403000E-7	3.660931E-3
1.404000E-7	4.253667E-3
1.405000E-7	3.489620E-3
1.406000E-7	2.895171E-3
1.407000E-7	1.694281E-3
1.408000E-7	2.228562E-5
1.409000E-7	-1.161473E-3
1.410000E-7	-1.865562E-3
1.411000E-7	-2.384634E-3
1.412000E-7	-1.334498E-3
1.413000E-7	-1.455992E-4
1.414000E-7	4.043091E-4
1.415000E-7	1.320823E-3
1.416000E-7	2.898597E-3
1.417000E-7	3.695193E-3
1.418000E-7	4.575732E-3
1.419000E-7	4.848117E-3
1.420000E-7	3.666071E-3
1.421000E-7	2.439484E-3
1.422000E-7	1.122102E-3
1.423000E-7	-3.683035E-4
1.424000E-7	-1.351629E-3
1.425000E-7	-2.057430E-3
1.426000E-7	-1.754209E-3
1.427000E-7	-3.443199E-4
1.428000E-7	3.032357E-4
1.429000E-7	1.678863E-3
1.430000E-7	2.811229E-3
1.431000E-7	3.496473E-3
1.432000E-7	4.161159E-3
1.433000E-7	4.560314E-3
1.434000E-7	3.674636E-3
1.435000E-7	2.350402E-3
1.436000E-7	8.325867E-4
1.437000E-7	2.826783E-4
1.438000E-7	-7.160648E-4
1.439000E-7	-1.995758E-3
1.440000E-7	-2.105397E-3
1.441000E-7	-5.807291E-4
1.442000E-7	4.008829E-4
1.443000E-7	9.833403E-4
1.444000E-7	1.910133E-3
1.445000E-7	2.713581E-3
1.446000E-7	4.017258E-3
1.447000E-7	4.796723E-3
1.448000E-7	4.440396E-3
1.449000E-7	2.946564E-3
1.450000E-7	1.685715E-3
1.451000E-7	-3.411034E-6
1.452000E-7	2.432768E-4
1.453000E-7	-8.873758E-4
1.454000E-7	-1.891258E-3
1.455000E-7	-9.747444E-4
1.456000E-7	-4.368279E-4
1.457000E-7	7.023903E-4
1.458000E-7	1.194053E-3
1.459000E-7	2.542270E-3
1.460000E-7	3.083613E-3
1.461000E-7	4.190282E-3
1.462000E-7	4.390716E-3
1.463000E-7	3.746587E-3
1.464000E-7	2.693024E-3
1.465000E-7	9.507912E-4
1.466000E-7	4.419976E-4
1.467000E-7	-1.120359E-3
1.468000E-7	-2.179061E-3
1.469000E-7	-1.815881E-3
1.470000E-7	-7.314828E-4
1.471000E-7	8.342998E-4
1.472000E-7	1.442454E-3
1.473000E-7	1.762805E-3
1.474000E-7	3.220662E-3
1.475000E-7	4.765887E-3
1.476000E-7	4.493503E-3
1.477000E-7	3.982996E-3
1.478000E-7	2.821507E-3
1.479000E-7	1.903280E-3
1.480000E-7	6.938247E-4
1.481000E-7	-7.400483E-4
1.482000E-7	-1.459555E-3
1.483000E-7	-2.228741E-3
1.484000E-7	-1.238563E-3
1.485000E-7	-2.363940E-4
1.486000E-7	1.332815E-3
1.487000E-7	1.512691E-3
1.488000E-7	2.346976E-3
1.489000E-7	3.729456E-3
1.490000E-7	4.633978E-3
1.491000E-7	4.594576E-3
1.492000E-7	3.844234E-3
1.493000E-7	2.252755E-3
1.494000E-7	4.300058E-4
1.495000E-7	-3.700166E-4
1.496000E-7	-1.435571E-3
1.497000E-7	-1.923807E-3
1.498000E-7	-4.745163E-4
1.499000E-7	-1.901400E-4
1.500000E-7	3.923174E-4
1.501000E-7	1.147799E-3
1.502000E-7	2.100288E-3
1.503000E-7	3.302891E-3
1.504000E-7	3.926463E-3
1.505000E-7	4.491790E-3
1.506000E-7	3.696907E-3
1.507000E-7	2.711868E-3
1.508000E-7	8.497178E-4
1.509000E-7	1.627606E-4
1.510000E-7	-1.867138E-4
1.511000E-7	-1.344776E-3
1.512000E-7	-1.612021E-3
1.513000E-7	-1.111793E-3
1.514000E-7	1.147936E-4
1.515000E-7	1.216323E-3
1.516000E-7	2.643344E-3
1.517000E-7	3.272055E-3
1.518000E-7	3.892201E-3
1.519000E-7	5.177034E-3
1.520000E-7	4.683658E-3
1.521000E-7	3.633522E-3
1.522000E-7	2.108854E-3
1.523000E-7	-1.850007E-4
1.524000E-7	-7.931547E-4
1.525000E-7	-1.522940E-3
1.526000E-7	-2.112249E-3
1.527000E-7	-2.394913E-3
1.528000E-7	-6.749502E-4
1.529000E-7	5.739070E-4
1.530000E-7	1.293413E-3
1.531000E-7	2.667327E-3
1.532000E-7	3.525596E-3
1.533000E-7	4.690510E-3
1.534000E-7	4.536330E-3
1.535000E-7	3.588981E-3
1.536000E-7	2.386377E-3
1.537000E-7	7.263738E-4
1.538000E-7	5.826093E-5
1.539000E-7	-1.194022E-3
1.540000E-7	-1.444137E-3
1.541000E-7	-1.892971E-3
1.542000E-7	-8.000072E-4
1.543000E-7	5.225137E-4
1.544000E-7	1.135807E-3
1.545000E-7	2.346976E-3
1.546000E-7	3.105884E-3
1.547000E-7	4.132037E-3
1.548000E-7	4.611707E-3
1.549000E-7	4.077217E-3
1.550000E-7	2.290443E-3
1.551000E-7	1.029594E-3
1.552000E-7	-1.987056E-4
1.553000E-7	-7.811630E-4
1.554000E-7	-1.829586E-3
1.555000E-7	-1.483538E-3
1.556000E-7	-1.240276E-3
1.557000E-7	-3.374675E-4
1.558000E-7	5.790464E-4
1.559000E-7	1.809059E-3
1.560000E-7	2.559402E-3
1.561000E-7	4.195422E-3
1.562000E-7	4.419839E-3
1.563000E-7	4.339323E-3
1.564000E-7	3.111023E-3
1.565000E-7	2.420640E-3
1.566000E-7	5.430711E-4
1.567000E-7	-1.368969E-5
1.568000E-7	-1.176891E-3
1.569000E-7	-1.444137E-3
1.570000E-7	-1.659988E-3
1.571000E-7	-5.361882E-4
1.572000E-7	6.544232E-4
1.573000E-7	1.677150E-3
1.574000E-7	2.477172E-3
1.575000E-7	3.376555E-3
1.576000E-7	4.092635E-3
1.577000E-7	4.813854E-3
1.578000E-7	4.198848E-3
1.579000E-7	2.824934E-3
1.580000E-7	1.259151E-3
1.581000E-7	2.998094E-4
1.582000E-7	-8.085727E-4
1.583000E-7	-1.795324E-3
1.584000E-7	-1.882693E-3
1.585000E-7	-9.610395E-4
1.586000E-7	6.081692E-4
1.587000E-7	8.839800E-4
1.588000E-7	1.934116E-3
1.589000E-7	2.912302E-3
1.590000E-7	3.955586E-3
1.591000E-7	4.589437E-3
1.592000E-7	4.656248E-3
1.593000E-7	2.915728E-3
1.594000E-7	1.754240E-3
1.595000E-7	3.135143E-4
1.596000E-7	-2.739457E-5
1.597000E-7	-1.134064E-3
1.598000E-7	-1.833013E-3
1.599000E-7	-1.846717E-3
1.600000E-7	-5.053523E-4
1.601000E-7	8.120293E-4
1.602000E-7	1.752527E-3
1.603000E-7	2.449762E-3
1.604000E-7	3.772283E-3
1.605000E-7	4.061799E-3
1.606000E-7	4.664814E-3
1.607000E-7	3.917898E-3
1.608000E-7	2.410361E-3
1.609000E-7	1.661869E-4
1.610000E-7	-5.309122E-5
1.611000E-7	-1.031277E-3
1.612000E-7	-1.809029E-3
1.613000E-7	-1.959783E-3
1.614000E-7	-1.089523E-3
1.615000E-7	-1.969925E-4
1.616000E-7	5.893250E-4
1.617000E-7	1.773084E-3
1.618000E-7	2.734139E-3
1.619000E-7	3.535874E-3
1.620000E-7	4.394142E-3
1.621000E-7	4.104627E-3
1.622000E-7	3.278908E-3
1.623000E-7	1.988936E-3
1.624000E-7	4.077354E-4
1.625000E-7	1.250722E-4
1.626000E-7	-9.319167E-4
1.627000E-7	-1.428719E-3
1.628000E-7	-1.103228E-3
1.629000E-7	-3.443199E-4
1.630000E-7	1.816048E-4
1.631000E-7	1.742248E-3
1.632000E-7	2.490877E-3
1.633000E-7	3.830529E-3
1.634000E-7	4.747043E-3
1.635000E-7	4.479798E-3
1.636000E-7	3.535874E-3
1.637000E-7	1.877584E-3
1.638000E-7	2.809652E-4
1.639000E-7	-7.006468E-4
1.640000E-7	-1.415014E-3
1.641000E-7	-1.481825E-3
1.642000E-7	-1.565767E-3
1.643000E-7	-9.524740E-4
1.644000E-7	-1.507385E-4
1.645000E-7	1.545240E-3
1.646000E-7	2.146542E-3
1.647000E-7	2.961982E-3
1.648000E-7	4.132037E-3
1.649000E-7	5.380894E-3
1.650000E-7	4.520913E-3
1.651000E-7	2.878040E-3
1.652000E-7	1.180348E-3
1.653000E-7	-5.823055E-5
1.654000E-7	-5.892947E-4
1.655000E-7	-1.228285E-3
1.656000E-7	-1.476686E-3
1.657000E-7	-9.935886E-4
1.658000E-7	-4.042788E-4
1.659000E-7	7.400787E-4
1.660000E-7	1.860453E-3
1.661000E-7	3.268629E-3
1.662000E-7	4.174864E-3
1.663000E-7	4.846403E-3
1.664000E-7	4.484937E-3
1.665000E-7	3.811685E-3
1.666000E-7	2.103714E-3
1.667000E-7	2.552686E-4
1.668000E-7	-8.565398E-4
1.669000E-7	-1.519513E-3
1.670000E-7	-1.778193E-3
1.671000E-7	-1.769627E-3
1.672000E-7	-6.646715E-4
1.673000E-7	8.017507E-4
1.674000E-7	1.709699E-3
1.675000E-7	2.048895E-3
1.676000E-7	3.205244E-3
1.677000E-7	3.739734E-3
1.678000E-7	4.207413E-3
1.679000E-7	3.212096E-3
1.680000E-7	1.968379E-3
1.681000E-7	4.282927E-4
1.682000E-7	4.848253E-4
1.683000E-7	-9.576133E-4
1.684000E-7	-2.194479E-3
1.685000E-7	-2.495986E-3
1.686000E-7	-1.084383E-3
1.687000E-7	-3.700166E-4
1.688000E-7	6.732674E-4
1.689000E-7	2.233911E-3
1.690000E-7	2.734139E-3
1.691000E-7	4.227971E-3
1.692000E-7	4.767600E-3
1.693000E-7	4.258807E-3
1.694000E-7	3.470776E-3
1.695000E-7	1.560658E-3
1.696000E-7	1.798917E-4
1.697000E-7	-3.082079E-5
1.698000E-7	-9.935886E-4
1.699000E-7	-1.916955E-3
1.700000E-7	-1.411587E-3
1.701000E-7	-5.738767E-4
1.702000E-7	2.244326E-4
1.703000E-7	1.684002E-3
1.704000E-7	2.674180E-3
1.705000E-7	3.535874E-3
1.706000E-7	4.113192E-3
1.707000E-7	4.140602E-3
1.708000E-7	2.924294E-3
1.709000E-7	2.175665E-3
1.710000E-7	2.381375E-4
1.711000E-7	2.055884E-4
1.712000E-7	-7.897285E-4
1.713000E-7	-1.288244E-3
1.714000E-7	-1.397883E-3
1.715000E-7	-1.029564E-3
1.716000E-7	1.404902E-4
1.717000E-7	8.377260E-4
1.718000E-7	2.281878E-3
1.719000E-7	3.129867E-3
1.720000E-7	3.885349E-3
1.721000E-7	4.699076E-3
1.722000E-7	4.200561E-3
1.723000E-7	2.764975E-3
1.724000E-7	1.403052E-3
1.725000E-7	3.734732E-4
1.726000E-7	-2.209760E-4
1.727000E-7	-1.156334E-3
1.728000E-7	-1.312227E-3
1.729000E-7	-1.659988E-3
1.730000E-7	-5.173440E-4
1.731000E-7	5.876119E-4
1.732000E-7	1.591494E-3
1.733000E-7	2.117419E-3
1.734000E-7	3.463924E-3
1.735000E-7	4.711068E-3
1.736000E-7	4.203987E-3
1.737000E-7	3.215523E-3
1.738000E-7	1.992362E-3
1.739000E-7	1.043299E-3
1.740000E-7	6.682648E-5
1.741000E-7	-1.586325E-3
1.742000E-7	-1.743931E-3
1.743000E-7	-1.377325E-3
1.744000E-7	-4.590983E-4
1.745000E-7	6.287266E-4
1.746000E-7	1.521257E-3
1.747000E-7	3.140146E-3
1.748000E-7	3.213810E-3
1.749000E-7	3.561571E-3
1.750000E-7	4.068651E-3
1.751000E-7	3.998414E-3
1.752000E-7	2.370959E-3
1.753000E-7	4.300058E-4
1.754000E-7	8.567069E-5
1.755000E-7	-3.820083E-4
1.756000E-7	-2.189339E-3
1.757000E-7	-2.355511E-3
1.758000E-7	-1.355055E-3
1.759000E-7	-1.267550E-4
1.760000E-7	7.914720E-4
1.761000E-7	1.586355E-3
1.762000E-7	2.761549E-3
1.763000E-7	4.330757E-3
1.764000E-7	4.464380E-3
1.765000E-7	4.210840E-3
1.766000E-7	2.946564E-3
1.767000E-7	1.658306E-3
1.768000E-7	2.552686E-4
1.769000E-7	-3.203364E-4
1.770000E-7	-1.332784E-3
1.771000E-7	-1.971774E-3
1.772000E-7	-1.195736E-3
1.773000E-7	-3.820083E-4
1.774000E-7	2.535555E-4
1.775000E-7	1.731969E-3
1.776000E-7	2.449762E-3
1.777000E-7	3.964152E-3
1.778000E-7	4.378724E-3
1.779000E-7	4.716207E-3
1.780000E-7	3.547866E-3
1.781000E-7	2.895171E-3
1.782000E-7	8.788406E-4
1.783000E-7	3.546290E-4
1.784000E-7	-5.927209E-4
1.785000E-7	-1.062113E-3
1.786000E-7	-1.762775E-3
1.787000E-7	-9.644657E-4
1.788000E-7	4.505631E-4
1.789000E-7	1.175209E-3
1.790000E-7	1.999215E-3
1.791000E-7	2.672467E-3
1.792000E-7	4.502068E-3
1.793000E-7	4.752182E-3
1.794000E-7	4.397569E-3
1.795000E-7	2.888319E-3
1.796000E-7	1.928977E-3
1.797000E-7	8.942586E-4
1.798000E-7	-2.312547E-4
1.799000E-7	-2.009463E-3
1.800000E-7	-1.716521E-3
1.801000E-7	-1.188883E-3
1.802000E-7	2.586948E-4
1.803000E-7	9.525044E-4
1.804000E-7	1.913559E-3
1.805000E-7	2.607369E-3
1.806000E-7	3.517030E-3
1.807000E-7	3.823677E-3
1.808000E-7	4.012119E-3
1.809000E-7	3.762005E-3
1.810000E-7	1.762805E-3
1.811000E-7	3.991698E-4
1.812000E-7	-6.937944E-4
1.813000E-7	-4.933605E-4
1.814000E-7	-1.108367E-3
1.815000E-7	-1.711382E-3
1.816000E-7	-4.847949E-4
1.817000E-7	5.670546E-4
1.818000E-7	1.348233E-3
1.819000E-7	2.466894E-3
1.820000E-7	2.883179E-3
1.821000E-7	3.741447E-3
1.822000E-7	4.500355E-3
1.823000E-7	4.102914E-3
1.824000E-7	2.285304E-3
1.825000E-7	4.368582E-4
1.826000E-7	-1.421729E-4
1.827000E-7	-1.241990E-3
1.828000E-7	-1.497243E-3
1.829000E-7	-1.834726E-3
1.830000E-7	-7.469008E-4
1.831000E-7	-3.837215E-4
1.832000E-7	6.938247E-4
1.833000E-7	1.761092E-3
1.834000E-7	3.054490E-3
1.835000E-7	3.717464E-3
1.836000E-7	4.270798E-3
1.837000E-7	4.359880E-3
1.838000E-7	3.242932E-3
1.839000E-7	1.512691E-3
1.840000E-7	2.107277E-4
1.841000E-7	-4.779425E-4
1.842000E-7	-1.826160E-3
1.843000E-7	-1.474973E-3
1.844000E-7	-1.493817E-3
1.845000E-7	-3.357544E-4
1.846000E-7	7.246607E-4
1.847000E-7	1.466437E-3
1.848000E-7	2.326419E-3
1.849000E-7	3.313170E-3
1.850000E-7	4.305061E-3
1.851000E-7	4.635691E-3
1.852000E-7	3.491333E-3
1.853000E-7	2.266460E-3
1.854000E-7	1.101545E-3
1.855000E-7	3.940305E-4
1.856000E-7	-7.982941E-4
1.857000E-7	-1.610308E-3
1.858000E-7	-1.617161E-3
1.859000E-7	-9.045069E-4
1.860000E-7	5.533497E-4
1.861000E-7	1.343093E-3
1.862000E-7	2.621074E-3
1.863000E-7	3.290900E-3
1.864000E-7	4.430118E-3
1.865000E-7	4.973174E-3
1.866000E-7	5.091378E-3
1.867000E-7	3.438227E-3
1.868000E-7	1.461298E-3
1.869000E-7	-4.452567E-5
1.870000E-7	-7.057861E-4
1.871000E-7	-1.449276E-3
1.872000E-7	-1.850144E-3
1.873000E-7	-9.541871E-4
1.874000E-7	-9.420586E-5
1.875000E-7	6.681281E-4
1.876000E-7	1.600060E-3
1.877000E-7	2.221919E-3
1.878000E-7	3.563284E-3
1.879000E-7	4.275938E-3
1.880000E-7	4.156020E-3
1.881000E-7	3.213810E-3
1.882000E-7	2.264747E-3
1.883000E-7	6.064561E-4
1.884000E-7	1.284984E-4
1.885000E-7	-4.710901E-4
1.886000E-7	-1.488677E-3
1.887000E-7	-1.055261E-3
1.888000E-7	-8.805234E-4
1.889000E-7	1.816048E-4
1.890000E-7	1.271143E-3
1.891000E-7	2.610795E-3
1.892000E-7	3.083613E-3
1.893000E-7	4.015545E-3
1.894000E-7	4.332470E-3
1.895000E-7	4.306774E-3
1.896000E-7	3.186400E-3
1.897000E-7	1.959813E-3
1.898000E-7	5.088089E-4
1.899000E-7	-2.997791E-4
1.900000E-7	-1.358481E-3
1.901000E-7	-1.791898E-3
1.902000E-7	-1.522940E-3
1.903000E-7	2.141539E-4
1.904000E-7	1.322536E-3
1.905000E-7	2.137976E-3
1.906000E-7	2.681032E-3
1.907000E-7	4.270798E-3
1.908000E-7	5.070821E-3
1.909000E-7	4.625412E-3
1.910000E-7	3.320022E-3
1.911000E-7	1.615478E-3
1.912000E-7	3.837518E-4
1.913000E-7	-2.535251E-4
1.914000E-7	-1.265973E-3
1.915000E-7	-1.829586E-3
1.916000E-7	-1.814168E-3
1.917000E-7	-6.338355E-4
1.918000E-7	4.128747E-4
1.919000E-7	1.603486E-3
1.920000E-7	2.742704E-3
1.921000E-7	3.815111E-3
1.922000E-7	4.049807E-3
1.923000E-7	4.227971E-3
1.924000E-7	3.873357E-3
1.925000E-7	2.511434E-3
1.926000E-7	9.096766E-4
1.927000E-7	8.738380E-5
1.928000E-7	-2.432464E-4
1.929000E-7	-1.289957E-3
1.930000E-7	-1.377325E-3
1.931000E-7	-7.160648E-4
1.932000E-7	5.242268E-4
1.933000E-7	1.303692E-3
1.934000E-7	2.615934E-3
1.935000E-7	3.123015E-3
1.936000E-7	4.262233E-3
1.937000E-7	4.878952E-3
1.938000E-7	4.469519E-3
1.939000E-7	2.746131E-3
1.940000E-7	1.678863E-3
1.941000E-7	1.033021E-3
1.942000E-7	2.021622E-4
1.943000E-7	-1.415014E-3
1.944000E-7	-2.103684E-3
1.945000E-7	-1.646284E-3
1.946000E-7	-3.974263E-4
1.947000E-7	8.462915E-4
1.948000E-7	1.714838E-3
1.949000E-7	3.003097E-3
1.950000E-7	3.056203E-3
1.951000E-7	4.257094E-3
1.952000E-7	5.096517E-3
1.953000E-7	4.258807E-3
1.954000E-7	2.410361E-3
1.955000E-7	3.957436E-4
1.956000E-7	-4.265492E-4
1.957000E-7	-1.161473E-3
1.958000E-7	-1.653136E-3
1.959000E-7	-1.983766E-3
1.960000E-7	-5.207703E-4
1.961000E-7	6.064561E-4
1.962000E-7	1.387634E-3
1.963000E-7	2.196222E-3
1.964000E-7	2.961982E-3
1.965000E-7	4.243389E-3
1.966000E-7	4.702502E-3
1.967000E-7	4.498642E-3
1.968000E-7	2.963696E-3
1.969000E-7	1.552093E-3
1.970000E-7	1.644737E-4
1.971000E-7	-7.092124E-4
1.972000E-7	-1.301948E-3
1.973000E-7	-1.668554E-3
1.974000E-7	-1.651423E-3
1.975000E-7	-2.568146E-5
1.976000E-7	7.914720E-4
1.977000E-7	2.245902E-3
1.978000E-7	2.278451E-3
1.979000E-7	3.815111E-3
1.980000E-7	4.712781E-3
1.981000E-7	4.426691E-3
1.982000E-7	3.152138E-3
1.983000E-7	1.814199E-3
1.984000E-7	1.231741E-3
1.985000E-7	4.522762E-4
1.986000E-7	-7.708843E-4
1.987000E-7	-1.512661E-3
1.988000E-7	-1.937512E-3
1.989000E-7	-1.171752E-3
1.990000E-7	-5.584587E-4
1.991000E-7	1.337954E-3
1.992000E-7	2.838638E-3
1.993000E-7	3.469063E-3
1.994000E-7	4.144028E-3
1.995000E-7	4.522626E-3
1.996000E-7	4.013832E-3
1.997000E-7	2.009493E-3
1.998000E-7	6.818330E-4
1.999000E-7	9.937557E-5
2.000000E-7	-7.109255E-4
2.001000E-7	-1.367047E-3
