Study Name	Tungsten_Calibration
Sample Name	2024-02-22
Run Name	spot00
Operator	Angus+Elena
Date	2/22/2024
Time	11:07
Sign	FIX
Grating Spacing	03.40um
Channel	3
Number Traces	10000
Files in Batch	1
Batch Number	1
dt	50.000001E-12
time stamp (ms)	11:07:55 AM
	
Time	Amplitude
0.000000E+0	5.875411E-3
5.000000E-11	5.861708E-3
1.000000E-10	5.837726E-3
1.500000E-10	5.810319E-3
2.000000E-10	5.827449E-3
2.500000E-10	5.906244E-3
3.000000E-10	5.998743E-3
3.500000E-10	6.080965E-3
4.000000E-10	6.170038E-3
4.500000E-10	6.269388E-3
5.000000E-10	6.361888E-3
5.500000E-10	6.440683E-3
6.000000E-10	6.512627E-3
6.500000E-10	6.550311E-3
7.000000E-10	6.533182E-3
7.500000E-10	6.485220E-3
8.000000E-10	6.444109E-3
8.500000E-10	6.389295E-3
9.000000E-10	6.324203E-3
9.500000E-10	6.289944E-3
1.000000E-9	6.327629E-3
1.050000E-9	6.420128E-3
1.100000E-9	6.522904E-3
1.150000E-9	6.635959E-3
1.200000E-9	6.755865E-3
1.250000E-9	6.868919E-3
1.300000E-9	6.954567E-3
1.350000E-9	6.992251E-3
1.400000E-9	6.985400E-3
1.450000E-9	6.940863E-3
1.500000E-9	6.834660E-3
1.550000E-9	6.659940E-3
1.600000E-9	6.468090E-3
1.650000E-9	6.265963E-3
1.700000E-9	6.022724E-3
1.750000E-9	5.769209E-3
1.800000E-9	5.587636E-3
1.850000E-9	5.478008E-3
1.900000E-9	5.378657E-3
1.950000E-9	5.299862E-3
2.000000E-9	5.310139E-3
2.050000E-9	5.375231E-3
2.100000E-9	5.399212E-3
2.150000E-9	5.388935E-3
2.200000E-9	5.416342E-3
2.250000E-9	5.457453E-3
2.300000E-9	5.443749E-3
2.350000E-9	5.392361E-3
2.400000E-9	5.371805E-3
2.450000E-9	5.371805E-3
2.500000E-9	5.347824E-3
2.550000E-9	5.330695E-3
2.600000E-9	5.354676E-3
2.650000E-9	5.416342E-3
2.700000E-9	5.464304E-3
2.750000E-9	5.495137E-3
2.800000E-9	5.543100E-3
2.850000E-9	5.611618E-3
2.900000E-9	5.625321E-3
2.950000E-9	5.560229E-3
3.000000E-9	5.508841E-3
3.050000E-9	5.488286E-3
3.100000E-9	5.406064E-3
3.150000E-9	5.279306E-3
3.200000E-9	5.197085E-3
3.250000E-9	5.152548E-3
3.300000E-9	5.070327E-3
3.350000E-9	5.029216E-3
3.400000E-9	5.090882E-3
3.450000E-9	5.197085E-3
3.500000E-9	5.293010E-3
3.550000E-9	5.433471E-3
3.600000E-9	5.611618E-3
3.650000E-9	5.758931E-3
3.700000E-9	5.858282E-3
3.750000E-9	5.930225E-3
3.800000E-9	5.988466E-3
3.850000E-9	6.029576E-3
3.900000E-9	6.012447E-3
3.950000E-9	5.940503E-3
4.000000E-9	5.854856E-3
4.050000E-9	5.772634E-3
4.100000E-9	5.645876E-3
4.150000E-9	5.505415E-3
4.200000E-9	5.426620E-3
4.250000E-9	5.378657E-3
4.300000E-9	5.323843E-3
4.350000E-9	5.306713E-3
4.400000E-9	5.347824E-3
4.450000E-9	5.395787E-3
4.500000E-9	5.433471E-3
4.550000E-9	5.460878E-3
4.600000E-9	5.478008E-3
4.650000E-9	5.478008E-3
4.700000E-9	5.450601E-3
4.750000E-9	5.395787E-3
4.800000E-9	5.327269E-3
4.850000E-9	5.248473E-3
4.900000E-9	5.128567E-3
4.950000E-9	4.998383E-3
5.000000E-9	4.926440E-3
5.050000E-9	4.878477E-3
5.100000E-9	4.833941E-3
5.150000E-9	4.837366E-3
5.200000E-9	4.899032E-3
5.250000E-9	4.974402E-3
5.300000E-9	5.070327E-3
5.350000E-9	5.227918E-3
5.400000E-9	5.447175E-3
5.450000E-9	5.721246E-3
5.500000E-9	6.019299E-3
5.550000E-9	6.344758E-3
5.600000E-9	6.745587E-3
5.650000E-9	7.310859E-3
5.700000E-9	8.040574E-3
5.750000E-9	8.986119E-3
5.800000E-9	1.027425E-2
5.850000E-9	1.197692E-2
5.900000E-9	1.410440E-2
5.950000E-9	1.669437E-2
6.000000E-9	1.978452E-2
6.050000E-9	2.335088E-2
6.100000E-9	2.732833E-2
6.150000E-9	3.165181E-2
6.200000E-9	3.624593E-2
6.250000E-9	4.098051E-2
6.300000E-9	4.571166E-2
6.350000E-9	5.027837E-2
6.400000E-9	5.454018E-2
6.450000E-9	5.841829E-2
6.500000E-9	6.177909E-2
6.550000E-9	6.449582E-2
6.600000E-9	6.652052E-2
6.650000E-9	6.790458E-2
6.700000E-9	6.857263E-2
6.750000E-9	6.848013E-2
6.800000E-9	6.768532E-2
6.850000E-9	6.627728E-2
6.900000E-9	6.425600E-2
6.950000E-9	6.166261E-2
7.000000E-9	5.868893E-2
7.050000E-9	5.549943E-2
7.100000E-9	5.211122E-2
7.150000E-9	4.865450E-2
7.200000E-9	4.537250E-2
7.250000E-9	4.237827E-2
7.300000E-9	3.970950E-2
7.350000E-9	3.751008E-2
7.400000E-9	3.591019E-2
7.450000E-9	3.489270E-2
7.500000E-9	3.439595E-2
7.550000E-9	3.441993E-2
7.600000E-9	3.496122E-2
7.650000E-9	3.591362E-2
7.700000E-9	3.713666E-2
7.750000E-9	3.852072E-2
7.800000E-9	3.996644E-2
7.850000E-9	4.135735E-2
7.900000E-9	4.259410E-2
7.950000E-9	4.358418E-2
8.000000E-9	4.424538E-2
8.050000E-9	4.452630E-2
8.100000E-9	4.438584E-2
8.150000E-9	4.379659E-2
8.200000E-9	4.277567E-2
8.250000E-9	4.137791E-2
8.300000E-9	3.962043E-2
8.350000E-9	3.753064E-2
8.400000E-9	3.521473E-2
8.450000E-9	3.280633E-2
8.500000E-9	3.039108E-2
8.550000E-9	2.802722E-2
8.600000E-9	2.583807E-2
8.650000E-9	2.395041E-2
8.700000E-9	2.244302E-2
8.750000E-9	2.136386E-2
8.800000E-9	2.077803E-2
8.850000E-9	2.069924E-2
8.900000E-9	2.109664E-2
8.950000E-9	2.193598E-2
9.000000E-9	2.319329E-2
9.050000E-9	2.476577E-2
9.100000E-9	2.650955E-2
9.150000E-9	2.830471E-2
9.200000E-9	3.007247E-2
9.250000E-9	3.171347E-2
9.300000E-9	3.310096E-2
9.350000E-9	3.414586E-2
9.400000E-9	3.480363E-2
9.450000E-9	3.503659E-2
9.500000E-9	3.480020E-2
9.550000E-9	3.408076E-2
9.600000E-9	3.292624E-2
9.650000E-9	3.140172E-2
9.700000E-9	2.953118E-2
9.750000E-9	2.740370E-2
9.800000E-9	2.520086E-2
9.850000E-9	2.300486E-2
9.900000E-9	2.083970E-2
9.950000E-9	1.884241E-2
1.000000E-8	1.722196E-2
1.005000E-8	1.599892E-2
1.010000E-8	1.515272E-2
1.015000E-8	1.477930E-2
1.020000E-8	1.493689E-2
1.025000E-8	1.557068E-2
1.030000E-8	1.663271E-2
1.035000E-8	1.806130E-2
1.040000E-8	1.974684E-2
1.045000E-8	2.159339E-2
1.050000E-8	2.352560E-2
1.055000E-8	2.539271E-2
1.060000E-8	2.706112E-2
1.065000E-8	2.847601E-2
1.070000E-8	2.952433E-2
1.075000E-8	3.010673E-2
1.080000E-8	3.020608E-2
1.085000E-8	2.981211E-2
1.090000E-8	2.885286E-2
1.095000E-8	2.739343E-2
1.100000E-8	2.560169E-2
1.105000E-8	2.352902E-2
1.110000E-8	2.120284E-2
1.115000E-8	1.878074E-2
1.120000E-8	1.644086E-2
1.125000E-8	1.425514E-2
1.130000E-8	1.234349E-2
1.135000E-8	1.083953E-2
1.140000E-8	9.801481E-3
1.145000E-8	9.246487E-3
1.150000E-8	9.229358E-3
1.155000E-8	9.763796E-3
1.160000E-8	1.078129E-2
1.165000E-8	1.219960E-2
1.170000E-8	1.395366E-2
1.175000E-8	1.594753E-2
1.180000E-8	1.806130E-2
1.185000E-8	2.018193E-2
1.190000E-8	2.213126E-2
1.195000E-8	2.377569E-2
1.200000E-8	2.508095E-2
1.205000E-8	2.596826E-2
1.210000E-8	2.630057E-2
1.215000E-8	2.606418E-2
1.220000E-8	2.534132E-2
1.225000E-8	2.416281E-2
1.230000E-8	2.251839E-2
1.235000E-8	2.052452E-2
1.240000E-8	1.834908E-2
1.245000E-8	1.610169E-2
1.250000E-8	1.385774E-2
1.255000E-8	1.176794E-2
1.260000E-8	9.979627E-3
1.265000E-8	8.561309E-3
1.270000E-8	7.547246E-3
1.275000E-8	6.999103E-3
1.280000E-8	6.957992E-3
1.285000E-8	7.396506E-3
1.290000E-8	8.256405E-3
1.295000E-8	9.517132E-3
1.300000E-8	1.109989E-2
1.305000E-8	1.289849E-2
1.310000E-8	1.482041E-2
1.315000E-8	1.680743E-2
1.320000E-8	1.873620E-2
1.325000E-8	2.045600E-2
1.330000E-8	2.186404E-2
1.335000E-8	2.287810E-2
1.340000E-8	2.345023E-2
1.345000E-8	2.350504E-2
1.350000E-8	2.300486E-2
1.355000E-8	2.198737E-2
1.360000E-8	2.050739E-2
1.365000E-8	1.861287E-2
1.370000E-8	1.638262E-2
1.375000E-8	1.395366E-2
1.380000E-8	1.149387E-2
1.385000E-8	9.136859E-3
1.390000E-8	6.968270E-3
1.395000E-8	5.125141E-3
1.400000E-8	3.751359E-3
1.405000E-8	2.901739E-3
1.410000E-8	2.586557E-3
1.415000E-8	2.819517E-3
1.420000E-8	3.617750E-3
1.425000E-8	4.881903E-3
1.430000E-8	6.502349E-3
1.435000E-8	8.413996E-3
1.440000E-8	1.051407E-2
1.445000E-8	1.264497E-2
1.450000E-8	1.467310E-2
1.455000E-8	1.651623E-2
1.460000E-8	1.807501E-2
1.465000E-8	1.927407E-2
1.470000E-8	2.001749E-2
1.475000E-8	2.022304E-2
1.480000E-8	1.992156E-2
1.485000E-8	1.917814E-2
1.490000E-8	1.796538E-2
1.495000E-8	1.631410E-2
1.500000E-8	1.436477E-2
1.505000E-8	1.223729E-2
1.510000E-8	9.976202E-3
1.515000E-8	7.718540E-3
1.520000E-8	5.659580E-3
1.525000E-8	3.857562E-3
1.530000E-8	2.336467E-3
1.535000E-8	1.243608E-3
1.540000E-8	7.023171E-4
1.545000E-8	6.749100E-4
1.550000E-8	1.106572E-3
1.555000E-8	2.017859E-3
1.560000E-8	3.384789E-3
1.565000E-8	5.097734E-3
1.570000E-8	7.023084E-3
1.575000E-8	9.051211E-3
1.580000E-8	1.111702E-2
1.585000E-8	1.309376E-2
1.590000E-8	1.482384E-2
1.595000E-8	1.619077E-2
1.600000E-8	1.716372E-2
1.605000E-8	1.770158E-2
1.610000E-8	1.770844E-2
1.615000E-8	1.717742E-2
1.620000E-8	1.618734E-2
1.625000E-8	1.478273E-2
1.630000E-8	1.297386E-2
1.635000E-8	1.086351E-2
1.640000E-8	8.643530E-3
1.645000E-8	6.413276E-3
1.650000E-8	4.241262E-3
1.655000E-8	2.250819E-3
1.660000E-8	6.029663E-4
1.665000E-8	-6.166506E-4
1.670000E-8	-1.380624E-3
1.675000E-8	-1.640992E-3
1.680000E-8	-1.356643E-3
1.685000E-8	-5.447069E-4
1.690000E-8	7.125948E-4
1.695000E-8	2.343318E-3
1.700000E-8	4.285798E-3
1.705000E-8	6.420128E-3
1.710000E-8	8.568161E-3
1.715000E-8	1.059286E-2
1.720000E-8	1.242571E-2
1.725000E-8	1.397079E-2
1.730000E-8	1.508078E-2
1.735000E-8	1.568031E-2
1.740000E-8	1.580021E-2
1.745000E-8	1.544392E-2
1.750000E-8	1.456347E-2
1.755000E-8	1.318626E-2
1.760000E-8	1.149045E-2
1.765000E-8	9.595928E-3
1.770000E-8	7.516412E-3
1.775000E-8	5.354676E-3
1.780000E-8	3.326549E-3
1.785000E-8	1.555364E-3
1.790000E-8	3.426851E-5
1.795000E-8	-1.130534E-3
1.800000E-8	-1.812286E-3
1.805000E-8	-1.990433E-3
1.810000E-8	-1.730065E-3
1.815000E-8	-1.017480E-3
1.820000E-8	1.473229E-4
1.825000E-8	1.675270E-3
1.830000E-8	3.463585E-3
1.835000E-8	5.406064E-3
1.840000E-8	7.430765E-3
1.845000E-8	9.434911E-3
1.850000E-8	1.128489E-2
1.855000E-8	1.284367E-2
1.860000E-8	1.407357E-2
1.865000E-8	1.491976E-2
1.870000E-8	1.530003E-2
1.875000E-8	1.516300E-2
1.880000E-8	1.453949E-2
1.885000E-8	1.350829E-2
1.890000E-8	1.206942E-2
1.895000E-8	1.027768E-2
1.900000E-8	8.307793E-3
1.905000E-8	6.307073E-3
1.910000E-8	4.289224E-3
1.915000E-8	2.360448E-3
1.920000E-8	7.502795E-4
1.925000E-8	-4.693373E-4
1.930000E-8	-1.342939E-3
1.935000E-8	-1.754046E-3
1.940000E-8	-1.572474E-3
1.945000E-8	-9.249807E-4
1.950000E-8	4.454618E-5
1.955000E-8	1.394347E-3
1.960000E-8	3.103866E-3
1.965000E-8	4.977828E-3
1.970000E-8	6.882623E-3
1.975000E-8	8.763436E-3
1.980000E-8	1.051064E-2
1.985000E-8	1.199405E-2
1.990000E-8	1.314515E-2
1.995000E-8	1.392625E-2
2.000000E-8	1.429967E-2
2.005000E-8	1.425514E-2
2.010000E-8	1.375838E-2
2.015000E-8	1.284367E-2
2.020000E-8	1.161720E-2
2.025000E-8	1.014407E-2
2.030000E-8	8.458532E-3
2.035000E-8	6.649662E-3
2.040000E-8	4.840792E-3
2.045000E-8	3.120995E-3
2.050000E-8	1.558790E-3
2.055000E-8	2.432478E-4
2.060000E-8	-7.228532E-4
2.065000E-8	-1.277847E-3
2.070000E-8	-1.432012E-3
2.075000E-8	-1.175071E-3
2.080000E-8	-4.727632E-4
2.085000E-8	6.406511E-4
2.090000E-8	2.076099E-3
2.095000E-8	3.771915E-3
2.100000E-8	5.645876E-3
2.105000E-8	7.554097E-3
2.110000E-8	9.380097E-3
2.115000E-8	1.107249E-2
2.120000E-8	1.252506E-2
2.125000E-8	1.361792E-2
2.130000E-8	1.427912E-2
2.135000E-8	1.448125E-2
2.140000E-8	1.423116E-2
2.145000E-8	1.352542E-2
2.150000E-8	1.241544E-2
2.155000E-8	1.096971E-2
2.160000E-8	9.256765E-3
2.165000E-8	7.369099E-3
2.170000E-8	5.419768E-3
2.175000E-8	3.521825E-3
2.180000E-8	1.784898E-3
2.185000E-8	3.117656E-4
2.190000E-8	-8.222040E-4
2.195000E-8	-1.562196E-3
2.200000E-8	-1.863675E-3
2.205000E-8	-1.702658E-3
2.210000E-8	-1.103127E-3
2.215000E-8	-9.248942E-5
2.220000E-8	1.291570E-3
2.225000E-8	2.966830E-3
2.230000E-8	4.799682E-3
2.235000E-8	6.704477E-3
2.240000E-8	8.588716E-3
2.245000E-8	1.032564E-2
2.250000E-8	1.179535E-2
2.255000E-8	1.290534E-2
2.260000E-8	1.364190E-2
2.265000E-8	1.395709E-2
2.270000E-8	1.381662E-2
2.275000E-8	1.324450E-2
2.280000E-8	1.231951E-2
2.285000E-8	1.107591E-2
2.290000E-8	9.541114E-3
2.295000E-8	7.848724E-3
2.300000E-8	6.125501E-3
2.305000E-8	4.402278E-3
2.310000E-8	2.727018E-3
2.315000E-8	1.247034E-3
2.320000E-8	5.824974E-5
2.325000E-8	-8.427594E-4
2.330000E-8	-1.408031E-3
2.335000E-8	-1.569048E-3
2.340000E-8	-1.298403E-3
2.345000E-8	-6.132247E-4
2.350000E-8	4.350977E-4
2.355000E-8	1.771195E-3
2.360000E-8	3.357382E-3
2.365000E-8	5.125141E-3
2.370000E-8	6.937437E-3
2.375000E-8	8.667512E-3
2.380000E-8	1.026398E-2
2.385000E-8	1.162063E-2
2.390000E-8	1.260043E-2
2.395000E-8	1.315885E-2
2.400000E-8	1.331987E-2
2.405000E-8	1.304237E-2
2.410000E-8	1.229553E-2
2.415000E-8	1.115471E-2
2.420000E-8	9.719260E-3
2.425000E-8	8.061129E-3
2.430000E-8	6.245407E-3
2.435000E-8	4.374871E-3
2.440000E-8	2.579705E-3
2.445000E-8	9.455553E-4
2.450000E-8	-4.385043E-4
2.455000E-8	-1.503956E-3
2.460000E-8	-2.172005E-3
2.465000E-8	-2.425521E-3
2.470000E-8	-2.298763E-3
2.475000E-8	-1.771176E-3
2.480000E-8	-8.187781E-4
2.485000E-8	4.727824E-4
2.490000E-8	1.973322E-3
2.495000E-8	3.652008E-3
2.500000E-8	5.457453E-3
2.505000E-8	7.238915E-3
2.510000E-8	8.862787E-3
2.515000E-8	1.030166E-2
2.520000E-8	1.148359E-2
2.525000E-8	1.231608E-2
2.530000E-8	1.275802E-2
2.535000E-8	1.279571E-2
2.540000E-8	1.242229E-2
2.545000E-8	1.165489E-2
2.550000E-8	1.053462E-2
2.555000E-8	9.140284E-3
2.560000E-8	7.567801E-3
2.565000E-8	5.892541E-3
2.570000E-8	4.152188E-3
2.575000E-8	2.480354E-3
2.580000E-8	1.031203E-3
2.585000E-8	-1.233224E-4
2.590000E-8	-9.866467E-4
2.595000E-8	-1.462845E-3
2.600000E-8	-1.476549E-3
2.605000E-8	-1.075720E-3
2.610000E-8	-3.357276E-4
2.615000E-8	7.468537E-4
2.620000E-8	2.144617E-3
2.625000E-8	3.730804E-3
2.630000E-8	5.392361E-3
2.635000E-8	7.071047E-3
2.640000E-8	8.667512E-3
2.645000E-8	1.006185E-2
2.650000E-8	1.116156E-2
2.655000E-8	1.191868E-2
2.660000E-8	1.230238E-2
2.665000E-8	1.229553E-2
2.670000E-8	1.188442E-2
2.675000E-8	1.109989E-2
2.680000E-8	1.000018E-2
2.685000E-8	8.653808E-3
2.690000E-8	7.129287E-3
2.695000E-8	5.488286E-3
2.700000E-8	3.826729E-3
2.705000E-8	2.230264E-3
2.710000E-8	8.016679E-4
2.715000E-8	-3.734124E-4
2.720000E-8	-1.240163E-3
2.725000E-8	-1.747194E-3
2.730000E-8	-1.897934E-3
2.735000E-8	-1.699232E-3
2.740000E-8	-1.113405E-3
2.745000E-8	-1.712849E-4
2.750000E-8	1.000370E-3
2.755000E-8	2.326189E-3
2.760000E-8	3.806174E-3
2.765000E-8	5.323843E-3
2.770000E-8	6.728458E-3
2.775000E-8	7.982334E-3
2.780000E-8	9.061489E-3
2.785000E-8	9.859721E-3
2.790000E-8	1.030166E-2
2.795000E-8	1.040786E-2
2.800000E-8	1.021601E-2
2.805000E-8	9.712408E-3
2.810000E-8	8.897046E-3
2.815000E-8	7.845298E-3
2.820000E-8	6.659940E-3
2.825000E-8	5.368379E-3
2.830000E-8	3.980894E-3
2.835000E-8	2.624241E-3
2.840000E-8	1.421754E-3
2.845000E-8	3.768575E-4
2.850000E-8	-5.172998E-4
2.855000E-8	-1.157941E-3
2.860000E-8	-1.452568E-3
2.865000E-8	-1.425161E-3
2.870000E-8	-1.096275E-3
2.875000E-8	-4.522079E-4
2.880000E-8	4.830601E-4
2.885000E-8	1.671844E-3
2.890000E-8	3.031922E-3
2.895000E-8	4.474222E-3
2.900000E-8	5.950781E-3
2.905000E-8	7.389655E-3
2.910000E-8	8.653808E-3
2.915000E-8	9.657594E-3
2.920000E-8	1.041129E-2
2.925000E-8	1.087036E-2
2.930000E-8	1.089777E-2
2.935000E-8	1.052434E-2
2.940000E-8	9.893980E-3
2.945000E-8	9.003249E-3
2.950000E-8	7.783632E-3
2.955000E-8	6.351610E-3
2.960000E-8	4.912736E-3
2.965000E-8	3.487566E-3
2.970000E-8	2.048692E-3
2.975000E-8	7.228724E-4
2.980000E-8	-3.323017E-4
2.985000E-8	-1.109979E-3
2.990000E-8	-1.613585E-3
2.995000E-8	-1.788305E-3
3.000000E-8	-1.562196E-3
3.005000E-8	-9.592396E-4
3.010000E-8	-7.535997E-5
3.015000E-8	1.051758E-3
3.020000E-8	2.428966E-3
3.025000E-8	3.980894E-3
3.030000E-8	5.553377E-3
3.035000E-8	7.071047E-3
3.040000E-8	8.513347E-3
3.045000E-8	9.756945E-3
3.050000E-8	1.065453E-2
3.055000E-8	1.117526E-2
3.060000E-8	1.136369E-2
3.065000E-8	1.117526E-2
3.070000E-8	1.055860E-2
3.075000E-8	9.595928E-3
3.080000E-8	8.417422E-3
3.085000E-8	7.067621E-3
3.090000E-8	5.580785E-3
3.095000E-8	4.052838E-3
3.100000E-8	2.613964E-3
3.105000E-8	1.360088E-3
3.110000E-8	3.151915E-4
3.115000E-8	-4.864668E-4
3.120000E-8	-9.660914E-4
3.125000E-8	-1.106553E-3
3.130000E-8	-9.523878E-4
3.135000E-8	-5.172998E-4
3.140000E-8	2.124148E-4
3.145000E-8	1.188793E-3
3.150000E-8	2.285078E-3
3.155000E-8	3.463585E-3
3.160000E-8	4.707183E-3
3.165000E-8	5.947355E-3
3.170000E-8	7.077899E-3
3.175000E-8	8.050851E-3
3.180000E-8	8.866213E-3
3.185000E-8	9.496577E-3
3.190000E-8	9.866573E-3
3.195000E-8	9.938517E-3
3.200000E-8	9.750093E-3
3.205000E-8	9.335560E-3
3.210000E-8	8.681215E-3
3.215000E-8	7.807613E-3
3.220000E-8	6.786698E-3
3.225000E-8	5.704117E-3
3.230000E-8	4.553018E-3
3.235000E-8	3.350530E-3
3.240000E-8	2.213135E-3
3.245000E-8	1.260737E-3
3.250000E-8	4.864860E-4
3.255000E-8	-8.221175E-5
3.260000E-8	-3.494312E-4
3.265000E-8	-2.706357E-4
3.270000E-8	9.936042E-5
3.275000E-8	7.434278E-4
3.280000E-8	1.675270E-3
3.285000E-8	2.843498E-3
3.290000E-8	4.159040E-3
3.295000E-8	5.546526E-3
3.300000E-8	6.937437E-3
3.305000E-8	8.218720E-3
3.310000E-8	9.291024E-3
3.315000E-8	1.009268E-2
3.320000E-8	1.056888E-2
3.325000E-8	1.070592E-2
3.330000E-8	1.049009E-2
3.335000E-8	9.952220E-3
3.340000E-8	9.147136E-3
3.345000E-8	8.112517E-3
3.350000E-8	6.899752E-3
3.355000E-8	5.604766E-3
3.360000E-8	4.313205E-3
3.365000E-8	3.066181E-3
3.370000E-8	1.911656E-3
3.375000E-8	9.387035E-4
3.380000E-8	2.089889E-4
3.385000E-8	-2.774875E-4
3.390000E-8	-5.070221E-4
3.395000E-8	-4.727632E-4
3.400000E-8	-1.644331E-4
3.405000E-8	4.042646E-4
3.410000E-8	1.195645E-3
3.415000E-8	2.175450E-3
3.420000E-8	3.312845E-3
3.425000E-8	4.532462E-3
3.430000E-8	5.741801E-3
3.435000E-8	6.913456E-3
3.440000E-8	8.006315E-3
3.445000E-8	8.903898E-3
3.450000E-8	9.489725E-3
3.455000E-8	9.763796E-3
3.460000E-8	9.743241E-3
3.465000E-8	9.407504E-3
3.470000E-8	8.756585E-3
3.475000E-8	7.838446E-3
3.480000E-8	6.759291E-3
3.485000E-8	5.611618E-3
3.490000E-8	4.422834E-3
3.495000E-8	3.216920E-3
3.500000E-8	2.110358E-3
3.505000E-8	1.219626E-3
3.510000E-8	5.310226E-4
3.515000E-8	3.769440E-5
3.520000E-8	-1.918402E-4
3.525000E-8	-1.438778E-4
3.530000E-8	1.267675E-4
3.535000E-8	5.995404E-4
3.540000E-8	1.301848E-3
3.545000E-8	2.172024E-3
3.550000E-8	3.093588E-3
3.555000E-8	4.039134E-3
3.560000E-8	5.056623E-3
3.565000E-8	6.087816E-3
3.570000E-8	6.988825E-3
3.575000E-8	7.728818E-3
3.580000E-8	8.345478E-3
3.585000E-8	8.763436E-3
3.590000E-8	8.890194E-3
3.595000E-8	8.760011E-3
3.600000E-8	8.410570E-3
3.605000E-8	7.797335E-3
3.610000E-8	6.947715E-3
3.615000E-8	5.961058E-3
3.620000E-8	4.885329E-3
3.625000E-8	3.741082E-3
3.630000E-8	2.610538E-3
3.635000E-8	1.582771E-3
3.640000E-8	7.091689E-4
3.645000E-8	4.112029E-5
3.650000E-8	-3.802642E-4
3.655000E-8	-5.070221E-4
3.660000E-8	-3.391535E-4
3.665000E-8	1.062122E-4
3.670000E-8	7.742608E-4
3.675000E-8	1.668418E-3
3.680000E-8	2.740722E-3
3.685000E-8	3.878117E-3
3.690000E-8	4.994957E-3
3.695000E-8	6.046706E-3
3.700000E-8	6.978548E-3
3.705000E-8	7.704836E-3
3.710000E-8	8.184461E-3
3.715000E-8	8.444829E-3
3.720000E-8	8.479088E-3
3.725000E-8	8.246127E-3
3.730000E-8	7.735669E-3
3.735000E-8	7.033362E-3
3.740000E-8	6.228278E-3
3.745000E-8	5.323843E-3
3.750000E-8	4.354316E-3
3.755000E-8	3.419048E-3
3.760000E-8	2.566001E-3
3.765000E-8	1.791750E-3
3.770000E-8	1.116850E-3
3.775000E-8	6.166698E-4
3.780000E-8	3.288951E-4
3.785000E-8	2.398219E-4
3.790000E-8	3.357468E-4
3.795000E-8	6.303734E-4
3.800000E-8	1.103146E-3
3.805000E-8	1.733510E-3
3.810000E-8	2.507761E-3
3.815000E-8	3.374511E-3
3.820000E-8	4.265243E-3
3.825000E-8	5.159400E-3
3.830000E-8	6.002169E-3
3.835000E-8	6.701051E-3
3.840000E-8	7.211508E-3
3.845000E-8	7.554097E-3
3.850000E-8	7.684281E-3
3.855000E-8	7.540394E-3
3.860000E-8	7.184101E-3
3.865000E-8	6.677069E-3
3.870000E-8	5.998743E-3
3.875000E-8	5.152548E-3
3.880000E-8	4.248113E-3
3.885000E-8	3.353956E-3
3.890000E-8	2.504335E-3
3.895000E-8	1.743788E-3
3.900000E-8	1.137405E-3
3.905000E-8	6.886135E-4
3.910000E-8	4.008388E-4
3.915000E-8	2.877844E-4
3.920000E-8	3.768575E-4
3.925000E-8	6.543546E-4
3.930000E-8	1.096294E-3
3.935000E-8	1.671844E-3
3.940000E-8	2.394707E-3
3.945000E-8	3.220346E-3
3.950000E-8	4.052838E-3
3.955000E-8	4.851070E-3
3.960000E-8	5.632173E-3
3.965000E-8	6.368739E-3
3.970000E-8	6.978548E-3
3.975000E-8	7.420488E-3
3.980000E-8	7.677429E-3
3.985000E-8	7.766502E-3
3.990000E-8	7.670578E-3
3.995000E-8	7.351970E-3
4.000000E-8	6.824383E-3
4.005000E-8	6.173464E-3
4.010000E-8	5.430045E-3
4.015000E-8	4.580425E-3
4.020000E-8	3.703397E-3
4.025000E-8	2.877757E-3
4.030000E-8	2.110358E-3
4.035000E-8	1.442309E-3
4.040000E-8	9.798142E-4
4.045000E-8	7.331501E-4
4.050000E-8	6.851876E-4
4.055000E-8	8.701857E-4
4.060000E-8	1.305274E-3
4.065000E-8	1.921934E-3
4.070000E-8	2.661926E-3
4.075000E-8	3.514973E-3
4.080000E-8	4.439963E-3
4.085000E-8	5.340972E-3
4.090000E-8	6.149482E-3
4.095000E-8	6.831234E-3
4.100000E-8	7.379377E-3
4.105000E-8	7.766502E-3
4.110000E-8	7.965204E-3
4.115000E-8	7.975482E-3
4.120000E-8	7.835020E-3
4.125000E-8	7.543820E-3
4.130000E-8	7.095028E-3
4.135000E-8	6.516053E-3
4.140000E-8	5.861708E-3
4.145000E-8	5.155974E-3
4.150000E-8	4.402278E-3
4.155000E-8	3.624601E-3
4.160000E-8	2.884609E-3
4.165000E-8	2.230264E-3
4.170000E-8	1.654715E-3
4.175000E-8	1.185368E-3
4.180000E-8	9.010187E-4
4.185000E-8	8.462045E-4
4.190000E-8	9.592588E-4
4.195000E-8	1.233330E-3
4.200000E-8	1.695825E-3
4.205000E-8	2.312485E-3
4.210000E-8	3.007941E-3
4.215000E-8	3.751359E-3
4.220000E-8	4.532462E-3
4.225000E-8	5.279306E-3
4.230000E-8	5.937077E-3
4.235000E-8	6.478368E-3
4.240000E-8	6.889475E-3
4.245000E-8	7.139565E-3
4.250000E-8	7.208082E-3
4.255000E-8	7.122435E-3
4.260000E-8	6.930585E-3
4.265000E-8	6.629107E-3
4.270000E-8	6.176889E-3
4.275000E-8	5.608192E-3
4.280000E-8	5.001809E-3
4.285000E-8	4.392001E-3
4.290000E-8	3.723952E-3
4.295000E-8	3.045626E-3
4.300000E-8	2.463225E-3
4.305000E-8	2.000729E-3
4.310000E-8	1.637585E-3
4.315000E-8	1.384069E-3
4.320000E-8	1.308700E-3
4.325000E-8	1.421754E-3
4.330000E-8	1.695825E-3
4.335000E-8	2.130913E-3
4.340000E-8	2.740722E-3
4.345000E-8	3.473862E-3
4.350000E-8	4.248113E-3
4.355000E-8	5.032642E-3
4.360000E-8	5.817171E-3
4.365000E-8	6.519478E-3
4.370000E-8	7.047066E-3
4.375000E-8	7.396506E-3
4.380000E-8	7.591782E-3
4.385000E-8	7.571227E-3
4.390000E-8	7.321137E-3
4.395000E-8	6.886049E-3
4.400000E-8	6.320777E-3
4.405000E-8	5.628747E-3
4.410000E-8	4.857922E-3
4.415000E-8	4.100800E-3
4.420000E-8	3.398493E-3
4.425000E-8	2.768129E-3
4.430000E-8	2.230264E-3
4.435000E-8	1.849990E-3
4.440000E-8	1.658140E-3
4.445000E-8	1.623882E-3
4.450000E-8	1.723232E-3
4.455000E-8	1.966471E-3
4.460000E-8	2.384429E-3
4.465000E-8	2.925720E-3
4.470000E-8	3.504695E-3
4.475000E-8	4.138485E-3
4.480000E-8	4.830515E-3
4.485000E-8	5.501989E-3
4.490000E-8	6.077539E-3
4.495000E-8	6.557163E-3
4.500000E-8	6.961418E-3
4.505000E-8	7.273174E-3
4.510000E-8	7.427339E-3
4.515000E-8	7.413636E-3
4.520000E-8	7.276600E-3
4.525000E-8	7.047066E-3
4.530000E-8	6.683921E-3
4.535000E-8	6.180315E-3
4.540000E-8	5.615043E-3
4.545000E-8	5.036068E-3
4.550000E-8	4.419408E-3
4.555000E-8	3.792470E-3
4.560000E-8	3.258031E-3
4.565000E-8	2.816091E-3
4.570000E-8	2.411836E-3
4.575000E-8	2.113784E-3
4.580000E-8	1.997304E-3
4.585000E-8	2.045266E-3
4.590000E-8	2.196005E-3
4.595000E-8	2.449521E-3
4.600000E-8	2.826369E-3
4.605000E-8	3.316271E-3
4.610000E-8	3.857562E-3
4.615000E-8	4.415982E-3
4.620000E-8	4.967550E-3
4.625000E-8	5.491711E-3
4.630000E-8	5.937077E-3
4.635000E-8	6.269388E-3
4.640000E-8	6.509201E-3
4.645000E-8	6.629107E-3
4.650000E-8	6.567441E-3
4.655000E-8	6.351610E-3
4.660000E-8	6.036428E-3
4.665000E-8	5.618469E-3
4.670000E-8	5.070327E-3
4.675000E-8	4.436537E-3
4.680000E-8	3.778766E-3
4.685000E-8	3.120995E-3
4.690000E-8	2.500909E-3
4.695000E-8	1.980174E-3
4.700000E-8	1.610178E-3
4.705000E-8	1.421754E-3
4.710000E-8	1.397773E-3
4.715000E-8	1.521105E-3
4.720000E-8	1.805454E-3
4.725000E-8	2.264523E-3
4.730000E-8	2.816091E-3
4.735000E-8	3.398493E-3
4.740000E-8	4.025430E-3
4.745000E-8	4.679775E-3
4.750000E-8	5.289584E-3
4.755000E-8	5.806893E-3
4.760000E-8	6.252259E-3
4.765000E-8	6.622255E-3
4.770000E-8	6.879197E-3
4.775000E-8	6.999103E-3
4.780000E-8	6.999103E-3
4.785000E-8	6.892900E-3
4.790000E-8	6.680495E-3
4.795000E-8	6.361888E-3
4.800000E-8	5.950781E-3
4.805000E-8	5.471156E-3
4.810000E-8	4.912736E-3
4.815000E-8	4.302928E-3
4.820000E-8	3.727378E-3
4.825000E-8	3.230624E-3
4.830000E-8	2.785258E-3
4.835000E-8	2.418688E-3
4.840000E-8	2.209709E-3
4.845000E-8	2.165172E-3
4.850000E-8	2.254245E-3
4.855000E-8	2.507761E-3
4.860000E-8	2.918868E-3
4.865000E-8	3.429326E-3
4.870000E-8	3.974042E-3
4.875000E-8	4.532462E-3
4.880000E-8	5.073753E-3
4.885000E-8	5.567081E-3
4.890000E-8	5.991891E-3
4.895000E-8	6.327629E-3
4.900000E-8	6.557163E-3
4.905000E-8	6.673644E-3
4.910000E-8	6.680495E-3
4.915000E-8	6.567441E-3
4.920000E-8	6.372165E-3
4.925000E-8	6.080965E-3
4.930000E-8	5.683561E-3
4.935000E-8	5.238196E-3
4.940000E-8	4.813385E-3
4.945000E-8	4.381723E-3
4.950000E-8	3.936357E-3
4.955000E-8	3.549232E-3
4.960000E-8	3.258031E-3
4.965000E-8	3.042200E-3
4.970000E-8	2.912016E-3
4.975000E-8	2.888035E-3
4.980000E-8	2.970256E-3
4.985000E-8	3.141551E-3
4.990000E-8	3.395067E-3
4.995000E-8	3.696545E-3
5.000000E-8	4.049412E-3
5.005000E-8	4.443389E-3
5.010000E-8	4.806533E-3
5.015000E-8	5.135419E-3
5.020000E-8	5.481434E-3
5.025000E-8	5.793190E-3
5.030000E-8	5.971336E-3
5.035000E-8	6.043280E-3
5.040000E-8	6.074113E-3
5.045000E-8	6.022724E-3
5.050000E-8	5.851430E-3
5.055000E-8	5.608192E-3
5.060000E-8	5.316991E-3
5.065000E-8	4.967550E-3
5.070000E-8	4.587276E-3
5.075000E-8	4.207003E-3
5.080000E-8	3.823303E-3
5.085000E-8	3.463585E-3
5.090000E-8	3.179236E-3
5.095000E-8	2.977108E-3
5.100000E-8	2.870906E-3
5.105000E-8	2.881183E-3
5.110000E-8	2.966830E-3
5.115000E-8	3.131273E-3
5.120000E-8	3.412196E-3
5.125000E-8	3.761637E-3
5.130000E-8	4.063115E-3
5.135000E-8	4.357742E-3
5.140000E-8	4.727738E-3
5.145000E-8	5.084031E-3
5.150000E-8	5.327269E-3
5.155000E-8	5.546526E-3
5.160000E-8	5.779486E-3
5.165000E-8	5.906244E-3
5.170000E-8	5.885689E-3
5.175000E-8	5.820597E-3
5.180000E-8	5.728098E-3
5.185000E-8	5.539674E-3
5.190000E-8	5.241621E-3
5.195000E-8	4.899032E-3
5.200000E-8	4.553018E-3
5.205000E-8	4.220706E-3
5.210000E-8	3.912376E-3
5.215000E-8	3.631453E-3
5.220000E-8	3.412196E-3
5.225000E-8	3.261457E-3
5.230000E-8	3.151829E-3
5.235000E-8	3.124421E-3
5.240000E-8	3.206643E-3
5.245000E-8	3.360808E-3
5.250000E-8	3.562935E-3
5.255000E-8	3.830155E-3
5.260000E-8	4.148763E-3
5.265000E-8	4.487926E-3
5.270000E-8	4.840792E-3
5.275000E-8	5.179955E-3
5.280000E-8	5.474582E-3
5.285000E-8	5.734950E-3
5.290000E-8	5.954207E-3
5.295000E-8	6.070687E-3
5.300000E-8	6.108372E-3
5.305000E-8	6.067261E-3
5.310000E-8	5.895966E-3
5.315000E-8	5.597914E-3
5.320000E-8	5.269029E-3
5.325000E-8	4.909310E-3
5.330000E-8	4.470796E-3
5.335000E-8	4.028856E-3
5.340000E-8	3.669138E-3
5.345000E-8	3.377937E-3
5.350000E-8	3.120995E-3
5.355000E-8	2.929146E-3
5.360000E-8	2.843498E-3
5.365000E-8	2.857202E-3
5.370000E-8	2.946275E-3
5.375000E-8	3.090162E-3
5.380000E-8	3.302568E-3
5.385000E-8	3.559509E-3
5.390000E-8	3.813025E-3
5.395000E-8	4.059689E-3
5.400000E-8	4.357742E-3
5.405000E-8	4.659220E-3
5.410000E-8	4.885329E-3
5.415000E-8	5.070327E-3
5.420000E-8	5.272454E-3
5.425000E-8	5.436897E-3
5.430000E-8	5.481434E-3
5.435000E-8	5.454027E-3
5.440000E-8	5.426620E-3
5.445000E-8	5.330695E-3
5.450000E-8	5.128567E-3
5.455000E-8	4.861348E-3
5.460000E-8	4.587276E-3
5.465000E-8	4.282372E-3
5.470000E-8	3.939783E-3
5.475000E-8	3.604046E-3
5.480000E-8	3.309419E-3
5.485000E-8	3.069607E-3
5.490000E-8	2.881183E-3
5.495000E-8	2.750999E-3
5.500000E-8	2.703037E-3
5.505000E-8	2.750999E-3
5.510000E-8	2.867480E-3
5.515000E-8	3.066181E-3
5.520000E-8	3.384789E-3
5.525000E-8	3.754785E-3
5.530000E-8	4.093948E-3
5.535000E-8	4.439963E-3
5.540000E-8	4.813385E-3
5.545000E-8	5.142271E-3
5.550000E-8	5.399212E-3
5.555000E-8	5.594488E-3
5.560000E-8	5.704117E-3
5.565000E-8	5.700691E-3
5.570000E-8	5.587636E-3
5.575000E-8	5.409490E-3
5.580000E-8	5.193659E-3
5.585000E-8	4.929865E-3
5.590000E-8	4.624961E-3
5.595000E-8	4.350890E-3
5.600000E-8	4.124781E-3
5.605000E-8	3.898673E-3
5.610000E-8	3.641731E-3
5.615000E-8	3.425900E-3
5.620000E-8	3.268309E-3
5.625000E-8	3.124421E-3
5.630000E-8	2.990812E-3
5.635000E-8	2.891461E-3
5.640000E-8	2.840073E-3
5.645000E-8	2.874331E-3
5.650000E-8	3.004515E-3
5.655000E-8	3.186087E-3
5.660000E-8	3.439603E-3
5.665000E-8	3.826729E-3
5.670000E-8	4.289224E-3
5.675000E-8	4.748293E-3
5.680000E-8	5.210788E-3
5.685000E-8	5.666432E-3
5.690000E-8	6.019299E-3
5.695000E-8	6.235130E-3
5.700000E-8	6.372165E-3
5.705000E-8	6.389295E-3
5.710000E-8	6.218000E-3
5.715000E-8	5.902818E-3
5.720000E-8	5.546526E-3
5.725000E-8	5.159400E-3
5.730000E-8	4.714034E-3
5.735000E-8	4.261817E-3
5.740000E-8	3.908950E-3
5.745000E-8	3.652008E-3
5.750000E-8	3.456733E-3
5.755000E-8	3.364234E-3
5.760000E-8	3.395067E-3
5.765000E-8	3.511547E-3
5.770000E-8	3.675990E-3
5.775000E-8	3.891821E-3
5.780000E-8	4.165892E-3
5.785000E-8	4.429686E-3
5.790000E-8	4.652368E-3
5.795000E-8	4.857922E-3
5.800000E-8	5.073753E-3
5.805000E-8	5.265603E-3
5.810000E-8	5.382083E-3
5.815000E-8	5.436897E-3
5.820000E-8	5.474582E-3
5.825000E-8	5.484860E-3
5.830000E-8	5.412916E-3
5.835000E-8	5.282732E-3
5.840000E-8	5.149122E-3
5.845000E-8	5.008661E-3
5.850000E-8	4.823663E-3
5.855000E-8	4.607832E-3
5.860000E-8	4.402278E-3
5.865000E-8	4.224132E-3
5.870000E-8	4.035708E-3
5.875000E-8	3.854136E-3
5.880000E-8	3.727378E-3
5.885000E-8	3.665712E-3
5.890000E-8	3.638305E-3
5.895000E-8	3.641731E-3
5.900000E-8	3.696545E-3
5.905000E-8	3.792470E-3
5.910000E-8	3.884969E-3
5.915000E-8	3.987746E-3
5.920000E-8	4.121355E-3
5.925000E-8	4.261817E-3
5.930000E-8	4.392001E-3
5.935000E-8	4.515333E-3
5.940000E-8	4.631813E-3
5.945000E-8	4.724312E-3
5.950000E-8	4.796256E-3
5.955000E-8	4.851070E-3
5.960000E-8	4.892181E-3
5.965000E-8	4.919588E-3
5.970000E-8	4.940143E-3
5.975000E-8	4.936717E-3
5.980000E-8	4.885329E-3
5.985000E-8	4.792830E-3
5.990000E-8	4.676350E-3
5.995000E-8	4.525610E-3
6.000000E-8	4.337186E-3
6.005000E-8	4.135059E-3
6.010000E-8	3.926080E-3
6.015000E-8	3.699971E-3
6.020000E-8	3.521825E-3
6.025000E-8	3.425900E-3
6.030000E-8	3.360808E-3
6.035000E-8	3.312845E-3
6.040000E-8	3.360808E-3
6.045000E-8	3.508121E-3
6.050000E-8	3.658860E-3
6.055000E-8	3.802748E-3
6.060000E-8	3.998023E-3
6.065000E-8	4.220706E-3
6.070000E-8	4.388575E-3
6.075000E-8	4.494777E-3
6.080000E-8	4.590702E-3
6.085000E-8	4.666072E-3
6.090000E-8	4.676350E-3
6.095000E-8	4.621535E-3
6.100000E-8	4.573573E-3
6.105000E-8	4.518759E-3
6.110000E-8	4.429686E-3
6.115000E-8	4.323483E-3
6.120000E-8	4.237836E-3
6.125000E-8	4.169318E-3
6.130000E-8	4.087097E-3
6.135000E-8	4.022005E-3
6.140000E-8	4.011727E-3
6.145000E-8	4.025430E-3
6.150000E-8	4.018579E-3
6.155000E-8	3.987746E-3
6.160000E-8	3.987746E-3
6.165000E-8	4.032282E-3
6.170000E-8	4.052838E-3
6.175000E-8	4.028856E-3
6.180000E-8	4.039134E-3
6.185000E-8	4.097374E-3
6.190000E-8	4.152188E-3
6.195000E-8	4.189873E-3
6.200000E-8	4.265243E-3
6.205000E-8	4.364594E-3
6.210000E-8	4.450241E-3
6.215000E-8	4.546166E-3
6.220000E-8	4.676350E-3
6.225000E-8	4.772275E-3
6.230000E-8	4.792830E-3
6.235000E-8	4.803108E-3
6.240000E-8	4.816811E-3
6.245000E-8	4.761997E-3
6.250000E-8	4.594128E-3
6.255000E-8	4.344038E-3
6.260000E-8	4.083671E-3
6.265000E-8	3.823303E-3
6.270000E-8	3.538954E-3
6.275000E-8	3.278586E-3
6.280000E-8	3.110718E-3
6.285000E-8	3.038774E-3
6.290000E-8	3.018219E-3
6.295000E-8	3.059329E-3
6.300000E-8	3.196365E-3
6.305000E-8	3.391641E-3
6.310000E-8	3.590342E-3
6.315000E-8	3.785618E-3
6.320000E-8	3.994597E-3
6.325000E-8	4.186447E-3
6.330000E-8	4.316631E-3
6.335000E-8	4.381723E-3
6.340000E-8	4.412556E-3
6.345000E-8	4.433111E-3
6.350000E-8	4.409130E-3
6.355000E-8	4.337186E-3
6.360000E-8	4.268669E-3
6.365000E-8	4.234410E-3
6.370000E-8	4.186447E-3
6.375000E-8	4.107652E-3
6.380000E-8	4.063115E-3
6.385000E-8	4.042560E-3
6.390000E-8	3.994597E-3
6.395000E-8	3.936357E-3
6.400000E-8	3.915802E-3
6.405000E-8	3.902098E-3
6.410000E-8	3.854136E-3
6.415000E-8	3.816451E-3
6.420000E-8	3.806174E-3
6.425000E-8	3.802748E-3
6.430000E-8	3.768489E-3
6.435000E-8	3.703397E-3
6.440000E-8	3.662286E-3
6.445000E-8	3.686267E-3
6.450000E-8	3.720526E-3
6.455000E-8	3.744507E-3
6.460000E-8	3.816451E-3
6.465000E-8	3.960339E-3
6.470000E-8	4.097374E-3
6.475000E-8	4.230984E-3
6.480000E-8	4.422834E-3
6.485000E-8	4.624961E-3
6.490000E-8	4.761997E-3
6.495000E-8	4.864774E-3
6.500000E-8	4.970976E-3
6.505000E-8	5.012087E-3
6.510000E-8	4.950421E-3
6.515000E-8	4.854496E-3
6.520000E-8	4.751719E-3
6.525000E-8	4.597554E-3
6.530000E-8	4.388575E-3
6.535000E-8	4.193299E-3
6.540000E-8	4.059689E-3
6.545000E-8	3.963764E-3
6.550000E-8	3.867840E-3
6.555000E-8	3.789044E-3
6.560000E-8	3.789044E-3
6.565000E-8	3.867840E-3
6.570000E-8	3.939783E-3
6.575000E-8	4.001449E-3
6.580000E-8	4.076819E-3
6.585000E-8	4.169318E-3
6.590000E-8	4.254965E-3
6.595000E-8	4.350890E-3
6.600000E-8	4.453667E-3
6.605000E-8	4.532462E-3
6.610000E-8	4.618109E-3
6.615000E-8	4.693479E-3
6.620000E-8	4.734590E-3
6.625000E-8	4.772275E-3
6.630000E-8	4.796256E-3
6.635000E-8	4.755145E-3
6.640000E-8	4.683201E-3
6.645000E-8	4.628387E-3
6.650000E-8	4.549592E-3
6.655000E-8	4.419408E-3
6.660000E-8	4.316631E-3
6.665000E-8	4.244687E-3
6.670000E-8	4.135059E-3
6.675000E-8	4.001449E-3
6.680000E-8	3.922654E-3
6.685000E-8	3.864414E-3
6.690000E-8	3.782192E-3
6.695000E-8	3.703397E-3
6.700000E-8	3.686267E-3
6.705000E-8	3.741082E-3
6.710000E-8	3.806174E-3
6.715000E-8	3.871265E-3
6.720000E-8	3.980894E-3
6.725000E-8	4.135059E-3
6.730000E-8	4.292650E-3
6.735000E-8	4.415982E-3
6.740000E-8	4.539314E-3
6.745000E-8	4.676350E-3
6.750000E-8	4.813385E-3
6.755000E-8	4.933291E-3
6.760000E-8	5.046346E-3
6.765000E-8	5.111438E-3
6.770000E-8	5.097734E-3
6.775000E-8	5.046346E-3
6.780000E-8	5.001809E-3
6.785000E-8	4.923014E-3
6.790000E-8	4.779126E-3
6.795000E-8	4.631813E-3
6.800000E-8	4.529036E-3
6.805000E-8	4.426260E-3
6.810000E-8	4.275520E-3
6.815000E-8	4.145337E-3
6.820000E-8	4.059689E-3
6.825000E-8	4.004875E-3
6.830000E-8	3.977468E-3
6.835000E-8	3.994597E-3
6.840000E-8	4.069967E-3
6.845000E-8	4.193299E-3
6.850000E-8	4.313205E-3
6.855000E-8	4.409130E-3
6.860000E-8	4.511907E-3
6.865000E-8	4.621535E-3
6.870000E-8	4.669498E-3
6.875000E-8	4.652368E-3
6.880000E-8	4.624961E-3
6.885000E-8	4.559869E-3
6.890000E-8	4.415982E-3
6.895000E-8	4.248113E-3
6.900000E-8	4.117930E-3
6.905000E-8	3.984320E-3
6.910000E-8	3.857562E-3
6.915000E-8	3.789044E-3
6.920000E-8	3.785618E-3
6.925000E-8	3.816451E-3
6.930000E-8	3.871265E-3
6.935000E-8	3.970616E-3
6.940000E-8	4.100800E-3
6.945000E-8	4.203577E-3
6.950000E-8	4.268669E-3
6.955000E-8	4.302928E-3
6.960000E-8	4.326909E-3
6.965000E-8	4.347464E-3
6.970000E-8	4.344038E-3
6.975000E-8	4.330335E-3
6.980000E-8	4.357742E-3
6.985000E-8	4.443389E-3
6.990000E-8	4.525610E-3
6.995000E-8	4.594128E-3
7.000000E-8	4.717460E-3
7.005000E-8	4.881903E-3
7.010000E-8	5.029216E-3
7.015000E-8	5.142271E-3
7.020000E-8	5.221066E-3
7.025000E-8	5.265603E-3
7.030000E-8	5.262177E-3
7.035000E-8	5.186807E-3
7.040000E-8	5.036068E-3
7.045000E-8	4.861348E-3
7.050000E-8	4.669498E-3
7.055000E-8	4.419408E-3
7.060000E-8	4.162466E-3
7.065000E-8	3.980894E-3
7.070000E-8	3.850710E-3
7.075000E-8	3.734230E-3
7.080000E-8	3.675990E-3
7.085000E-8	3.679416E-3
7.090000E-8	3.706823E-3
7.095000E-8	3.758211E-3
7.100000E-8	3.847284E-3
7.105000E-8	3.932931E-3
7.110000E-8	4.022005E-3
7.115000E-8	4.107652E-3
7.120000E-8	4.183021E-3
7.125000E-8	4.241262E-3
7.130000E-8	4.296076E-3
7.135000E-8	4.326909E-3
7.140000E-8	4.361168E-3
7.145000E-8	4.419408E-3
7.150000E-8	4.463944E-3
7.155000E-8	4.477648E-3
7.160000E-8	4.508481E-3
7.165000E-8	4.549592E-3
7.170000E-8	4.553018E-3
7.175000E-8	4.553018E-3
7.180000E-8	4.576999E-3
7.185000E-8	4.563295E-3
7.190000E-8	4.508481E-3
7.195000E-8	4.484500E-3
7.200000E-8	4.453667E-3
7.205000E-8	4.392001E-3
7.210000E-8	4.333761E-3
7.215000E-8	4.285798E-3
7.220000E-8	4.220706E-3
7.225000E-8	4.172744E-3
7.230000E-8	4.155614E-3
7.235000E-8	4.121355E-3
7.240000E-8	4.090522E-3
7.245000E-8	4.100800E-3
7.250000E-8	4.080245E-3
7.255000E-8	4.015153E-3
7.260000E-8	3.977468E-3
7.265000E-8	3.970616E-3
7.270000E-8	3.936357E-3
7.275000E-8	3.905524E-3
7.280000E-8	3.922654E-3
7.285000E-8	3.946635E-3
7.290000E-8	3.974042E-3
7.295000E-8	4.035708E-3
7.300000E-8	4.111078E-3
7.305000E-8	4.183021E-3
7.310000E-8	4.248113E-3
7.315000E-8	4.289224E-3
7.320000E-8	4.333761E-3
7.325000E-8	4.419408E-3
7.330000E-8	4.453667E-3
7.335000E-8	4.392001E-3
7.340000E-8	4.344038E-3
7.345000E-8	4.361168E-3
7.350000E-8	4.344038E-3
7.355000E-8	4.275520E-3
7.360000E-8	4.254965E-3
7.365000E-8	4.275520E-3
7.370000E-8	4.268669E-3
7.375000E-8	4.265243E-3
7.380000E-8	4.302928E-3
7.385000E-8	4.326909E-3
7.390000E-8	4.344038E-3
7.395000E-8	4.385149E-3
7.400000E-8	4.446815E-3
7.405000E-8	4.511907E-3
7.410000E-8	4.563295E-3
7.415000E-8	4.590702E-3
7.420000E-8	4.631813E-3
7.425000E-8	4.686627E-3
7.430000E-8	4.690053E-3
7.435000E-8	4.645517E-3
7.440000E-8	4.600980E-3
7.445000E-8	4.563295E-3
7.450000E-8	4.453667E-3
7.455000E-8	4.278946E-3
7.460000E-8	4.124781E-3
7.465000E-8	3.998023E-3
7.470000E-8	3.871265E-3
7.475000E-8	3.768489E-3
7.480000E-8	3.751359E-3
7.485000E-8	3.806174E-3
7.490000E-8	3.905524E-3
7.495000E-8	4.059689E-3
7.500000E-8	4.275520E-3
7.505000E-8	4.491352E-3
7.510000E-8	4.696905E-3
7.515000E-8	4.885329E-3
7.520000E-8	5.032642E-3
7.525000E-8	5.090882E-3
7.530000E-8	5.073753E-3
7.535000E-8	5.015513E-3
7.540000E-8	4.936717E-3
7.545000E-8	4.833941E-3
7.550000E-8	4.710608E-3
7.555000E-8	4.587276E-3
7.560000E-8	4.515333E-3
7.565000E-8	4.487926E-3
7.570000E-8	4.491352E-3
7.575000E-8	4.518759E-3
7.580000E-8	4.597554E-3
7.585000E-8	4.690053E-3
7.590000E-8	4.748293E-3
7.595000E-8	4.772275E-3
7.600000E-8	4.789404E-3
7.605000E-8	4.782552E-3
7.610000E-8	4.710608E-3
7.615000E-8	4.607832E-3
7.620000E-8	4.522185E-3
7.625000E-8	4.436537E-3
7.630000E-8	4.313205E-3
7.635000E-8	4.210429E-3
7.640000E-8	4.169318E-3
7.645000E-8	4.162466E-3
7.650000E-8	4.155614E-3
7.655000E-8	4.193299E-3
7.660000E-8	4.278946E-3
7.665000E-8	4.381723E-3
7.670000E-8	4.494777E-3
7.675000E-8	4.600980E-3
7.680000E-8	4.683201E-3
7.685000E-8	4.727738E-3
7.690000E-8	4.738016E-3
7.695000E-8	4.707183E-3
7.700000E-8	4.669498E-3
7.705000E-8	4.607832E-3
7.710000E-8	4.505055E-3
7.715000E-8	4.415982E-3
7.720000E-8	4.378297E-3
7.725000E-8	4.340612E-3
7.730000E-8	4.268669E-3
7.735000E-8	4.241262E-3
7.740000E-8	4.292650E-3
7.745000E-8	4.371445E-3
7.750000E-8	4.422834E-3
7.755000E-8	4.457093E-3
7.760000E-8	4.508481E-3
7.765000E-8	4.566721E-3
7.770000E-8	4.597554E-3
7.775000E-8	4.580425E-3
7.780000E-8	4.559869E-3
7.785000E-8	4.535888E-3
7.790000E-8	4.467370E-3
7.795000E-8	4.385149E-3
7.800000E-8	4.368019E-3
7.805000E-8	4.381723E-3
7.810000E-8	4.357742E-3
7.815000E-8	4.316631E-3
7.820000E-8	4.306353E-3
7.825000E-8	4.309779E-3
7.830000E-8	4.289224E-3
7.835000E-8	4.227558E-3
7.840000E-8	4.155614E-3
7.845000E-8	4.093948E-3
7.850000E-8	4.042560E-3
7.855000E-8	3.977468E-3
7.860000E-8	3.922654E-3
7.865000E-8	3.908950E-3
7.870000E-8	3.943209E-3
7.875000E-8	4.011727E-3
7.880000E-8	4.117930E-3
7.885000E-8	4.275520E-3
7.890000E-8	4.446815E-3
7.895000E-8	4.600980E-3
7.900000E-8	4.744867E-3
7.905000E-8	4.875051E-3
7.910000E-8	4.950421E-3
7.915000E-8	4.970976E-3
7.920000E-8	4.964124E-3
7.925000E-8	4.909310E-3
7.930000E-8	4.796256E-3
7.935000E-8	4.669498E-3
7.940000E-8	4.559869E-3
7.945000E-8	4.443389E-3
7.950000E-8	4.323483E-3
7.955000E-8	4.220706E-3
7.960000E-8	4.148763E-3
7.965000E-8	4.093948E-3
7.970000E-8	4.049412E-3
7.975000E-8	4.015153E-3
7.980000E-8	4.018579E-3
7.985000E-8	4.066541E-3
7.990000E-8	4.097374E-3
7.995000E-8	4.100800E-3
8.000000E-8	4.138485E-3
8.005000E-8	4.200151E-3
8.010000E-8	4.207003E-3
8.015000E-8	4.189873E-3
8.020000E-8	4.210429E-3
8.025000E-8	4.241262E-3
8.030000E-8	4.224132E-3
8.035000E-8	4.183021E-3
8.040000E-8	4.169318E-3
8.045000E-8	4.145337E-3
8.050000E-8	4.087097E-3
8.055000E-8	4.059689E-3
8.060000E-8	4.080245E-3
8.065000E-8	4.090522E-3
8.070000E-8	4.080245E-3
8.075000E-8	4.097374E-3
8.080000E-8	4.138485E-3
8.085000E-8	4.155614E-3
8.090000E-8	4.159040E-3
8.095000E-8	4.186447E-3
8.100000E-8	4.217280E-3
8.105000E-8	4.237836E-3
8.110000E-8	4.220706E-3
8.115000E-8	4.162466E-3
8.120000E-8	4.114504E-3
8.125000E-8	4.076819E-3
8.130000E-8	4.015153E-3
8.135000E-8	3.953487E-3
8.140000E-8	3.963764E-3
8.145000E-8	4.001449E-3
8.150000E-8	4.028856E-3
8.155000E-8	4.090522E-3
8.160000E-8	4.203577E-3
8.165000E-8	4.296076E-3
8.170000E-8	4.378297E-3
8.175000E-8	4.491352E-3
8.180000E-8	4.580425E-3
8.185000E-8	4.604406E-3
8.190000E-8	4.611258E-3
8.195000E-8	4.614684E-3
8.200000E-8	4.597554E-3
8.205000E-8	4.570147E-3
8.210000E-8	4.535888E-3
8.215000E-8	4.463944E-3
8.220000E-8	4.398852E-3
8.225000E-8	4.395427E-3
8.230000E-8	4.398852E-3
8.235000E-8	4.378297E-3
8.240000E-8	4.392001E-3
8.245000E-8	4.409130E-3
8.250000E-8	4.374871E-3
8.255000E-8	4.337186E-3
8.260000E-8	4.333761E-3
8.265000E-8	4.268669E-3
8.270000E-8	4.155614E-3
8.275000E-8	4.097374E-3
8.280000E-8	4.066541E-3
8.285000E-8	4.004875E-3
8.290000E-8	3.967190E-3
8.295000E-8	4.008301E-3
8.300000E-8	4.104226E-3
8.305000E-8	4.224132E-3
8.310000E-8	4.378297E-3
8.315000E-8	4.556443E-3
8.320000E-8	4.714034E-3
8.325000E-8	4.823663E-3
8.330000E-8	4.868199E-3
8.335000E-8	4.868199E-3
8.340000E-8	4.857922E-3
8.345000E-8	4.844218E-3
8.350000E-8	4.785978E-3
8.355000E-8	4.714034E-3
8.360000E-8	4.696905E-3
8.365000E-8	4.710608E-3
8.370000E-8	4.686627E-3
8.375000E-8	4.655794E-3
8.380000E-8	4.686627E-3
8.385000E-8	4.731164E-3
8.390000E-8	4.727738E-3
8.395000E-8	4.717460E-3
8.400000E-8	4.744867E-3
8.405000E-8	4.748293E-3
8.410000E-8	4.710608E-3
8.415000E-8	4.703757E-3
8.420000E-8	4.741442E-3
8.425000E-8	4.779126E-3
8.430000E-8	4.813385E-3
8.435000E-8	4.875051E-3
8.440000E-8	4.950421E-3
8.445000E-8	5.012087E-3
8.450000E-8	5.060049E-3
8.455000E-8	5.063475E-3
8.460000E-8	5.029216E-3
8.465000E-8	4.964124E-3
8.470000E-8	4.851070E-3
8.475000E-8	4.696905E-3
8.480000E-8	4.546166E-3
8.485000E-8	4.374871E-3
8.490000E-8	4.169318E-3
8.495000E-8	4.004875E-3
8.500000E-8	3.926080E-3
8.505000E-8	3.898673E-3
8.510000E-8	3.891821E-3
8.515000E-8	3.953487E-3
8.520000E-8	4.076819E-3
8.525000E-8	4.213854E-3
8.530000E-8	4.344038E-3
8.535000E-8	4.450241E-3
8.540000E-8	4.515333E-3
8.545000E-8	4.535888E-3
8.550000E-8	4.535888E-3
8.555000E-8	4.484500E-3
8.560000E-8	4.354316E-3
8.565000E-8	4.203577E-3
8.570000E-8	4.097374E-3
8.575000E-8	3.994597E-3
8.580000E-8	3.922654E-3
8.585000E-8	3.939783E-3
8.590000E-8	4.025430E-3
8.595000E-8	4.121355E-3
8.600000E-8	4.302928E-3
8.605000E-8	4.556443E-3
8.610000E-8	4.785978E-3
8.615000E-8	4.967550E-3
8.620000E-8	5.179955E-3
8.625000E-8	5.368379E-3
8.630000E-8	5.450601E-3
8.635000E-8	5.433471E-3
8.640000E-8	5.385509E-3
8.645000E-8	5.279306E-3
8.650000E-8	5.087456E-3
8.655000E-8	4.878477E-3
8.660000E-8	4.741442E-3
8.665000E-8	4.652368E-3
8.670000E-8	4.559869E-3
8.675000E-8	4.494777E-3
8.680000E-8	4.525610E-3
8.685000E-8	4.607832E-3
8.690000E-8	4.638665E-3
8.695000E-8	4.642091E-3
8.700000E-8	4.686627E-3
8.705000E-8	4.717460E-3
8.710000E-8	4.666072E-3
8.715000E-8	4.583851E-3
8.720000E-8	4.505055E-3
8.725000E-8	4.381723E-3
8.730000E-8	4.210429E-3
8.735000E-8	4.073393E-3
8.740000E-8	3.977468E-3
8.745000E-8	3.902098E-3
8.750000E-8	3.843858E-3
8.755000E-8	3.809599E-3
8.760000E-8	3.809599E-3
8.765000E-8	3.854136E-3
8.770000E-8	3.922654E-3
8.775000E-8	3.960339E-3
8.780000E-8	3.977468E-3
8.785000E-8	4.004875E-3
8.790000E-8	3.998023E-3
8.795000E-8	3.943209E-3
8.800000E-8	3.895247E-3
8.805000E-8	3.864414E-3
8.810000E-8	3.789044E-3
8.815000E-8	3.710249E-3
8.820000E-8	3.696545E-3
8.825000E-8	3.699971E-3
8.830000E-8	3.679416E-3
8.835000E-8	3.682841E-3
8.840000E-8	3.744507E-3
8.845000E-8	3.806174E-3
8.850000E-8	3.860988E-3
8.855000E-8	3.922654E-3
8.860000E-8	3.970616E-3
8.865000E-8	3.984320E-3
8.870000E-8	3.987746E-3
8.875000E-8	3.998023E-3
8.880000E-8	4.025430E-3
8.885000E-8	4.063115E-3
8.890000E-8	4.090522E-3
8.895000E-8	4.155614E-3
8.900000E-8	4.285798E-3
8.905000E-8	4.426260E-3
8.910000E-8	4.518759E-3
8.915000E-8	4.604406E-3
8.920000E-8	4.710608E-3
8.925000E-8	4.755145E-3
8.930000E-8	4.693479E-3
8.935000E-8	4.594128E-3
8.940000E-8	4.498203E-3
8.945000E-8	4.374871E-3
8.950000E-8	4.213854E-3
8.955000E-8	4.063115E-3
8.960000E-8	3.980894E-3
8.965000E-8	3.953487E-3
8.970000E-8	3.926080E-3
8.975000E-8	3.926080E-3
8.980000E-8	4.045986E-3
8.985000E-8	4.213854E-3
8.990000E-8	4.302928E-3
8.995000E-8	4.368019E-3
9.000000E-8	4.491352E-3
9.005000E-8	4.590702E-3
9.010000E-8	4.566721E-3
9.015000E-8	4.494777E-3
9.020000E-8	4.426260E-3
9.025000E-8	4.333761E-3
9.030000E-8	4.193299E-3
9.035000E-8	4.052838E-3
9.040000E-8	3.929506E-3
9.045000E-8	3.840432E-3
9.050000E-8	3.795896E-3
9.055000E-8	3.785618E-3
9.060000E-8	3.802748E-3
9.065000E-8	3.857562E-3
9.070000E-8	3.926080E-3
9.075000E-8	3.977468E-3
9.080000E-8	4.045986E-3
9.085000E-8	4.148763E-3
9.090000E-8	4.258391E-3
9.095000E-8	4.361168E-3
9.100000E-8	4.508481E-3
9.105000E-8	4.690053E-3
9.110000E-8	4.847644E-3
9.115000E-8	5.012087E-3
9.120000E-8	5.221066E-3
9.125000E-8	5.406064E-3
9.130000E-8	5.508841E-3
9.135000E-8	5.573933E-3
9.140000E-8	5.618469E-3
9.145000E-8	5.608192E-3
9.150000E-8	5.553377E-3
9.155000E-8	5.495137E-3
9.160000E-8	5.423194E-3
9.165000E-8	5.313565E-3
9.170000E-8	5.200511E-3
9.175000E-8	5.114864E-3
9.180000E-8	5.066901E-3
9.185000E-8	5.042920E-3
9.190000E-8	4.998383E-3
9.195000E-8	4.943569E-3
9.200000E-8	4.929865E-3
9.205000E-8	4.929865E-3
9.210000E-8	4.847644E-3
9.215000E-8	4.714034E-3
9.220000E-8	4.614684E-3
9.225000E-8	4.529036E-3
9.230000E-8	4.405704E-3
9.235000E-8	4.272095E-3
9.240000E-8	4.179596E-3
9.245000E-8	4.131633E-3
9.250000E-8	4.107652E-3
9.255000E-8	4.111078E-3
9.260000E-8	4.141911E-3
9.265000E-8	4.230984E-3
9.270000E-8	4.344038E-3
9.275000E-8	4.433111E-3
9.280000E-8	4.505055E-3
9.285000E-8	4.624961E-3
9.290000E-8	4.744867E-3
9.295000E-8	4.813385E-3
9.300000E-8	4.892181E-3
9.305000E-8	5.008661E-3
9.310000E-8	5.077179E-3
9.315000E-8	5.070327E-3
9.320000E-8	5.066901E-3
9.325000E-8	5.066901E-3
9.330000E-8	5.012087E-3
9.335000E-8	4.888755E-3
9.340000E-8	4.751719E-3
9.345000E-8	4.604406E-3
9.350000E-8	4.446815E-3
9.355000E-8	4.275520E-3
9.360000E-8	4.117930E-3
9.365000E-8	3.998023E-3
9.370000E-8	3.895247E-3
9.375000E-8	3.809599E-3
9.380000E-8	3.792470E-3
9.385000E-8	3.860988E-3
9.390000E-8	3.929506E-3
9.395000E-8	3.980894E-3
9.400000E-8	4.076819E-3
9.405000E-8	4.207003E-3
9.410000E-8	4.309779E-3
9.415000E-8	4.392001E-3
9.420000E-8	4.498203E-3
9.425000E-8	4.597554E-3
9.430000E-8	4.648942E-3
9.435000E-8	4.659220E-3
9.440000E-8	4.666072E-3
9.445000E-8	4.672924E-3
9.450000E-8	4.648942E-3
9.455000E-8	4.587276E-3
9.460000E-8	4.542740E-3
9.465000E-8	4.522185E-3
9.470000E-8	4.481074E-3
9.475000E-8	4.439963E-3
9.480000E-8	4.467370E-3
9.485000E-8	4.529036E-3
9.490000E-8	4.570147E-3
9.495000E-8	4.618109E-3
9.500000E-8	4.710608E-3
9.505000E-8	4.803108E-3
9.510000E-8	4.851070E-3
9.515000E-8	4.868199E-3
9.520000E-8	4.881903E-3
9.525000E-8	4.888755E-3
9.530000E-8	4.875051E-3
9.535000E-8	4.837366E-3
9.540000E-8	4.796256E-3
9.545000E-8	4.765423E-3
9.550000E-8	4.717460E-3
9.555000E-8	4.628387E-3
9.560000E-8	4.553018E-3
9.565000E-8	4.525610E-3
9.570000E-8	4.474222E-3
9.575000E-8	4.368019E-3
9.580000E-8	4.296076E-3
9.585000E-8	4.265243E-3
9.590000E-8	4.189873E-3
9.595000E-8	4.097374E-3
9.600000E-8	4.093948E-3
9.605000E-8	4.148763E-3
9.610000E-8	4.196725E-3
9.615000E-8	4.272095E-3
9.620000E-8	4.426260E-3
9.625000E-8	4.621535E-3
9.630000E-8	4.785978E-3
9.635000E-8	4.909310E-3
9.640000E-8	5.012087E-3
9.645000E-8	5.104586E-3
9.650000E-8	5.142271E-3
9.655000E-8	5.111438E-3
9.660000E-8	5.063475E-3
9.665000E-8	5.022364E-3
9.670000E-8	4.933291E-3
9.675000E-8	4.809959E-3
9.680000E-8	4.748293E-3
9.685000E-8	4.751719E-3
9.690000E-8	4.724312E-3
9.695000E-8	4.683201E-3
9.700000E-8	4.714034E-3
9.705000E-8	4.782552E-3
9.710000E-8	4.792830E-3
9.715000E-8	4.785978E-3
9.720000E-8	4.806533E-3
9.725000E-8	4.803108E-3
9.730000E-8	4.751719E-3
9.735000E-8	4.696905E-3
9.740000E-8	4.628387E-3
9.745000E-8	4.529036E-3
9.750000E-8	4.450241E-3
9.755000E-8	4.426260E-3
9.760000E-8	4.429686E-3
9.765000E-8	4.457093E-3
9.770000E-8	4.518759E-3
9.775000E-8	4.604406E-3
9.780000E-8	4.703757E-3
9.785000E-8	4.827089E-3
9.790000E-8	4.957273E-3
9.795000E-8	5.084031E-3
9.800000E-8	5.224492E-3
9.805000E-8	5.378657E-3
9.810000E-8	5.508841E-3
9.815000E-8	5.615043E-3
9.820000E-8	5.704117E-3
9.825000E-8	5.769209E-3
9.830000E-8	5.769209E-3
9.835000E-8	5.731524E-3
9.840000E-8	5.676710E-3
9.845000E-8	5.597914E-3
9.850000E-8	5.474582E-3
9.855000E-8	5.310139E-3
9.860000E-8	5.166252E-3
9.865000E-8	5.063475E-3
9.870000E-8	4.950421E-3
9.875000E-8	4.809959E-3
9.880000E-8	4.724312E-3
9.885000E-8	4.717460E-3
9.890000E-8	4.717460E-3
9.895000E-8	4.714034E-3
9.900000E-8	4.751719E-3
9.905000E-8	4.809959E-3
9.910000E-8	4.820237E-3
9.915000E-8	4.813385E-3
9.920000E-8	4.830515E-3
9.925000E-8	4.830515E-3
9.930000E-8	4.751719E-3
9.935000E-8	4.648942E-3
9.940000E-8	4.594128E-3
9.945000E-8	4.559869E-3
9.950000E-8	4.481074E-3
9.955000E-8	4.392001E-3
9.960000E-8	4.340612E-3
9.965000E-8	4.326909E-3
9.970000E-8	4.278946E-3
9.975000E-8	4.217280E-3
9.980000E-8	4.217280E-3
9.985000E-8	4.234410E-3
9.990000E-8	4.203577E-3
9.995000E-8	4.152188E-3
1.000000E-7	4.159040E-3
1.000500E-7	4.179596E-3
1.001000E-7	4.179596E-3
1.001500E-7	4.189873E-3
1.002000E-7	4.254965E-3
1.002500E-7	4.357742E-3
1.003000E-7	4.487926E-3
1.003500E-7	4.628387E-3
1.004000E-7	4.775700E-3
1.004500E-7	4.946995E-3
1.005000E-7	5.097734E-3
1.005500E-7	5.166252E-3
1.006000E-7	5.186807E-3
1.006500E-7	5.183381E-3
1.007000E-7	5.090882E-3
1.007500E-7	4.892181E-3
1.008000E-7	4.669498E-3
1.008500E-7	4.415982E-3
1.009000E-7	4.107652E-3
1.009500E-7	3.809599E-3
1.010000E-7	3.580065E-3
1.010500E-7	3.374511E-3
1.011000E-7	3.210069E-3
1.011500E-7	3.172384E-3
1.012000E-7	3.275161E-3
1.012500E-7	3.443029E-3
1.013000E-7	3.641731E-3
1.013500E-7	3.888395E-3
1.014000E-7	4.162466E-3
1.014500E-7	4.402278E-3
1.015000E-7	4.559869E-3
1.015500E-7	4.638665E-3
1.016000E-7	4.683201E-3
1.016500E-7	4.683201E-3
1.017000E-7	4.590702E-3
1.017500E-7	4.433111E-3
1.018000E-7	4.285798E-3
1.018500E-7	4.179596E-3
1.019000E-7	4.073393E-3
1.019500E-7	3.998023E-3
1.020000E-7	4.018579E-3
1.020500E-7	4.111078E-3
1.021000E-7	4.224132E-3
1.021500E-7	4.371445E-3
1.022000E-7	4.580425E-3
1.022500E-7	4.813385E-3
1.023000E-7	4.994957E-3
1.023500E-7	5.118289E-3
1.024000E-7	5.231344E-3
1.024500E-7	5.316991E-3
1.025000E-7	5.330695E-3
1.025500E-7	5.265603E-3
1.026000E-7	5.152548E-3
1.026500E-7	5.018939E-3
1.027000E-7	4.892181E-3
1.027500E-7	4.755145E-3
1.028000E-7	4.594128E-3
1.028500E-7	4.453667E-3
1.029000E-7	4.361168E-3
1.029500E-7	4.299502E-3
1.030000E-7	4.268669E-3
1.030500E-7	4.275520E-3
1.031000E-7	4.272095E-3
1.031500E-7	4.254965E-3
1.032000E-7	4.285798E-3
1.032500E-7	4.368019E-3
1.033000E-7	4.409130E-3
1.033500E-7	4.409130E-3
1.034000E-7	4.419408E-3
1.034500E-7	4.433111E-3
1.035000E-7	4.412556E-3
1.035500E-7	4.392001E-3
1.036000E-7	4.385149E-3
1.036500E-7	4.364594E-3
1.037000E-7	4.323483E-3
1.037500E-7	4.309779E-3
1.038000E-7	4.330335E-3
1.038500E-7	4.371445E-3
1.039000E-7	4.395427E-3
1.039500E-7	4.409130E-3
1.040000E-7	4.443389E-3
1.040500E-7	4.491352E-3
1.041000E-7	4.463944E-3
1.041500E-7	4.395427E-3
1.042000E-7	4.354316E-3
1.042500E-7	4.309779E-3
1.043000E-7	4.200151E-3
1.043500E-7	4.107652E-3
1.044000E-7	4.111078E-3
1.044500E-7	4.121355E-3
1.045000E-7	4.097374E-3
1.045500E-7	4.100800E-3
1.046000E-7	4.169318E-3
1.046500E-7	4.299502E-3
1.047000E-7	4.426260E-3
1.047500E-7	4.535888E-3
1.048000E-7	4.662646E-3
1.048500E-7	4.813385E-3
1.049000E-7	4.929865E-3
1.049500E-7	4.988106E-3
1.050000E-7	5.056623E-3
1.050500E-7	5.101160E-3
1.051000E-7	5.070327E-3
1.051500E-7	5.001809E-3
1.052000E-7	4.936717E-3
1.052500E-7	4.823663E-3
1.053000E-7	4.642091E-3
1.053500E-7	4.460519E-3
1.054000E-7	4.299502E-3
1.054500E-7	4.117930E-3
1.055000E-7	3.943209E-3
1.055500E-7	3.813025E-3
1.056000E-7	3.717100E-3
1.056500E-7	3.665712E-3
1.057000E-7	3.682841E-3
1.057500E-7	3.761637E-3
1.058000E-7	3.864414E-3
1.058500E-7	3.998023E-3
1.059000E-7	4.152188E-3
1.059500E-7	4.316631E-3
1.060000E-7	4.491352E-3
1.060500E-7	4.645517E-3
1.061000E-7	4.717460E-3
1.061500E-7	4.744867E-3
1.062000E-7	4.782552E-3
1.062500E-7	4.779126E-3
1.063000E-7	4.696905E-3
1.063500E-7	4.573573E-3
1.064000E-7	4.470796E-3
1.064500E-7	4.368019E-3
1.065000E-7	4.244687E-3
1.065500E-7	4.107652E-3
1.066000E-7	3.974042E-3
1.066500E-7	3.884969E-3
1.067000E-7	3.833581E-3
1.067500E-7	3.785618E-3
1.068000E-7	3.754785E-3
1.068500E-7	3.785618E-3
1.069000E-7	3.843858E-3
1.069500E-7	3.915802E-3
1.070000E-7	4.056263E-3
1.070500E-7	4.258391E-3
1.071000E-7	4.439963E-3
1.071500E-7	4.621535E-3
1.072000E-7	4.844218E-3
1.072500E-7	5.029216E-3
1.073000E-7	5.104586E-3
1.073500E-7	5.125141E-3
1.074000E-7	5.121715E-3
1.074500E-7	5.053198E-3
1.075000E-7	4.912736E-3
1.075500E-7	4.741442E-3
1.076000E-7	4.600980E-3
1.076500E-7	4.511907E-3
1.077000E-7	4.457093E-3
1.077500E-7	4.409130E-3
1.078000E-7	4.405704E-3
1.078500E-7	4.474222E-3
1.079000E-7	4.559869E-3
1.079500E-7	4.628387E-3
1.080000E-7	4.710608E-3
1.080500E-7	4.799682E-3
1.081000E-7	4.820237E-3
1.081500E-7	4.779126E-3
1.082000E-7	4.738016E-3
1.082500E-7	4.669498E-3
1.083000E-7	4.522185E-3
1.083500E-7	4.337186E-3
1.084000E-7	4.193299E-3
1.084500E-7	4.090522E-3
1.085000E-7	4.001449E-3
1.085500E-7	3.943209E-3
1.086000E-7	3.936357E-3
1.086500E-7	3.970616E-3
1.087000E-7	4.028856E-3
1.087500E-7	4.111078E-3
1.088000E-7	4.210429E-3
1.088500E-7	4.313205E-3
1.089000E-7	4.371445E-3
1.089500E-7	4.402278E-3
1.090000E-7	4.470796E-3
1.090500E-7	4.542740E-3
1.091000E-7	4.553018E-3
1.091500E-7	4.559869E-3
1.092000E-7	4.600980E-3
1.092500E-7	4.618109E-3
1.093000E-7	4.607832E-3
1.093500E-7	4.607832E-3
1.094000E-7	4.597554E-3
1.094500E-7	4.566721E-3
1.095000E-7	4.553018E-3
1.095500E-7	4.532462E-3
1.096000E-7	4.457093E-3
1.096500E-7	4.378297E-3
1.097000E-7	4.313205E-3
1.097500E-7	4.196725E-3
1.098000E-7	4.093948E-3
1.098500E-7	4.049412E-3
1.099000E-7	3.991172E-3
1.099500E-7	3.912376E-3
1.100000E-7	3.905524E-3
1.100500E-7	3.960339E-3
1.101000E-7	4.039134E-3
1.101500E-7	4.165892E-3
1.102000E-7	4.337186E-3
1.102500E-7	4.484500E-3
1.103000E-7	4.594128E-3
1.103500E-7	4.676350E-3
1.104000E-7	4.703757E-3
1.104500E-7	4.645517E-3
1.105000E-7	4.532462E-3
1.105500E-7	4.378297E-3
1.106000E-7	4.193299E-3
1.106500E-7	4.011727E-3
1.107000E-7	3.823303E-3
1.107500E-7	3.648583E-3
1.108000E-7	3.545806E-3
1.108500E-7	3.518399E-3
1.109000E-7	3.535528E-3
1.109500E-7	3.607472E-3
1.110000E-7	3.761637E-3
1.110500E-7	3.953487E-3
1.111000E-7	4.148763E-3
1.111500E-7	4.368019E-3
1.112000E-7	4.576999E-3
1.112500E-7	4.731164E-3
1.113000E-7	4.813385E-3
1.113500E-7	4.861348E-3
1.114000E-7	4.871625E-3
1.114500E-7	4.844218E-3
1.115000E-7	4.761997E-3
1.115500E-7	4.618109E-3
1.116000E-7	4.446815E-3
1.116500E-7	4.299502E-3
1.117000E-7	4.159040E-3
1.117500E-7	4.011727E-3
1.118000E-7	3.895247E-3
1.118500E-7	3.816451E-3
1.119000E-7	3.741082E-3
1.119500E-7	3.703397E-3
1.120000E-7	3.744507E-3
1.120500E-7	3.813025E-3
1.121000E-7	3.867840E-3
1.121500E-7	3.960339E-3
1.122000E-7	4.121355E-3
1.122500E-7	4.296076E-3
1.123000E-7	4.429686E-3
1.123500E-7	4.532462E-3
1.124000E-7	4.624961E-3
1.124500E-7	4.693479E-3
1.125000E-7	4.693479E-3
1.125500E-7	4.614684E-3
1.126000E-7	4.515333E-3
1.126500E-7	4.395427E-3
1.127000E-7	4.217280E-3
1.127500E-7	4.018579E-3
1.128000E-7	3.888395E-3
1.128500E-7	3.799322E-3
1.129000E-7	3.713674E-3
1.129500E-7	3.672564E-3
1.130000E-7	3.717100E-3
1.130500E-7	3.813025E-3
1.131000E-7	3.915802E-3
1.131500E-7	4.018579E-3
1.132000E-7	4.117930E-3
1.132500E-7	4.220706E-3
1.133000E-7	4.268669E-3
1.133500E-7	4.241262E-3
1.134000E-7	4.193299E-3
1.134500E-7	4.152188E-3
1.135000E-7	4.066541E-3
1.135500E-7	3.960339E-3
1.136000E-7	3.929506E-3
1.136500E-7	3.956913E-3
1.137000E-7	3.967190E-3
1.137500E-7	4.011727E-3
1.138000E-7	4.131633E-3
1.138500E-7	4.258391E-3
1.139000E-7	4.374871E-3
1.139500E-7	4.508481E-3
1.140000E-7	4.628387E-3
1.140500E-7	4.679775E-3
1.141000E-7	4.683201E-3
1.141500E-7	4.683201E-3
1.142000E-7	4.690053E-3
1.142500E-7	4.666072E-3
1.143000E-7	4.587276E-3
1.143500E-7	4.501629E-3
1.144000E-7	4.450241E-3
1.144500E-7	4.385149E-3
1.145000E-7	4.282372E-3
1.145500E-7	4.196725E-3
1.146000E-7	4.176170E-3
1.146500E-7	4.169318E-3
1.147000E-7	4.159040E-3
1.147500E-7	4.176170E-3
1.148000E-7	4.213854E-3
1.148500E-7	4.261817E-3
1.149000E-7	4.320057E-3
1.149500E-7	4.392001E-3
1.150000E-7	4.477648E-3
1.150500E-7	4.563295E-3
1.151000E-7	4.621535E-3
1.151500E-7	4.662646E-3
1.152000E-7	4.731164E-3
1.152500E-7	4.785978E-3
1.153000E-7	4.775700E-3
1.153500E-7	4.700331E-3
1.154000E-7	4.638665E-3
1.154500E-7	4.594128E-3
1.155000E-7	4.525610E-3
1.155500E-7	4.433111E-3
1.156000E-7	4.347464E-3
1.156500E-7	4.306353E-3
1.157000E-7	4.316631E-3
1.157500E-7	4.378297E-3
1.158000E-7	4.477648E-3
1.158500E-7	4.607832E-3
1.159000E-7	4.748293E-3
1.159500E-7	4.892181E-3
1.160000E-7	5.032642E-3
1.160500E-7	5.159400E-3
1.161000E-7	5.231344E-3
1.161500E-7	5.238196E-3
1.162000E-7	5.193659E-3
1.162500E-7	5.094308E-3
1.163000E-7	4.923014E-3
1.163500E-7	4.710608E-3
1.164000E-7	4.518759E-3
1.164500E-7	4.340612E-3
1.165000E-7	4.159040E-3
1.165500E-7	4.001449E-3
1.166000E-7	3.905524E-3
1.166500E-7	3.847284E-3
1.167000E-7	3.819877E-3
1.167500E-7	3.833581E-3
1.168000E-7	3.895247E-3
1.168500E-7	3.963764E-3
1.169000E-7	3.994597E-3
1.169500E-7	3.994597E-3
1.170000E-7	3.998023E-3
1.170500E-7	4.008301E-3
1.171000E-7	3.991172E-3
1.171500E-7	3.970616E-3
1.172000E-7	4.015153E-3
1.172500E-7	4.076819E-3
1.173000E-7	4.111078E-3
1.173500E-7	4.165892E-3
1.174000E-7	4.275520E-3
1.174500E-7	4.371445E-3
1.175000E-7	4.422834E-3
1.175500E-7	4.463944E-3
1.176000E-7	4.525610E-3
1.176500E-7	4.580425E-3
1.177000E-7	4.611258E-3
1.177500E-7	4.590702E-3
1.178000E-7	4.563295E-3
1.178500E-7	4.563295E-3
1.179000E-7	4.535888E-3
1.179500E-7	4.470796E-3
1.180000E-7	4.460519E-3
1.180500E-7	4.501629E-3
1.181000E-7	4.505055E-3
1.181500E-7	4.481074E-3
1.182000E-7	4.508481E-3
1.182500E-7	4.573573E-3
1.183000E-7	4.614684E-3
1.183500E-7	4.659220E-3
1.184000E-7	4.734590E-3
1.184500E-7	4.799682E-3
1.185000E-7	4.830515E-3
1.185500E-7	4.844218E-3
1.186000E-7	4.861348E-3
1.186500E-7	4.861348E-3
1.187000E-7	4.816811E-3
1.187500E-7	4.744867E-3
1.188000E-7	4.700331E-3
1.188500E-7	4.659220E-3
1.189000E-7	4.559869E-3
1.189500E-7	4.436537E-3
1.190000E-7	4.357742E-3
1.190500E-7	4.320057E-3
1.191000E-7	4.261817E-3
1.191500E-7	4.183021E-3
1.192000E-7	4.121355E-3
1.192500E-7	4.100800E-3
1.193000E-7	4.107652E-3
1.193500E-7	4.128207E-3
1.194000E-7	4.152188E-3
1.194500E-7	4.176170E-3
1.195000E-7	4.196725E-3
1.195500E-7	4.227558E-3
1.196000E-7	4.282372E-3
1.196500E-7	4.320057E-3
1.197000E-7	4.320057E-3
1.197500E-7	4.333761E-3
1.198000E-7	4.374871E-3
1.198500E-7	4.415982E-3
1.199000E-7	4.460519E-3
1.199500E-7	4.508481E-3
1.200000E-7	4.553018E-3
1.200500E-7	4.594128E-3
1.201000E-7	4.628387E-3
1.201500E-7	4.638665E-3
1.202000E-7	4.662646E-3
1.202500E-7	4.717460E-3
1.203000E-7	4.768849E-3
1.203500E-7	4.792830E-3
1.204000E-7	4.833941E-3
1.204500E-7	4.888755E-3
1.205000E-7	4.923014E-3
1.205500E-7	4.933291E-3
1.206000E-7	4.950421E-3
1.206500E-7	4.964124E-3
1.207000E-7	4.946995E-3
1.207500E-7	4.905884E-3
1.208000E-7	4.857922E-3
1.208500E-7	4.803108E-3
1.209000E-7	4.744867E-3
1.209500E-7	4.669498E-3
1.210000E-7	4.583851E-3
1.210500E-7	4.511907E-3
1.211000E-7	4.439963E-3
1.211500E-7	4.347464E-3
1.212000E-7	4.275520E-3
1.212500E-7	4.227558E-3
1.213000E-7	4.162466E-3
1.213500E-7	4.069967E-3
1.214000E-7	4.008301E-3
1.214500E-7	3.963764E-3
1.215000E-7	3.912376E-3
1.215500E-7	3.888395E-3
1.216000E-7	3.926080E-3
1.216500E-7	3.974042E-3
1.217000E-7	3.994597E-3
1.217500E-7	4.042560E-3
1.218000E-7	4.148763E-3
1.218500E-7	4.261817E-3
1.219000E-7	4.330335E-3
1.219500E-7	4.405704E-3
1.220000E-7	4.518759E-3
1.220500E-7	4.611258E-3
1.221000E-7	4.659220E-3
1.221500E-7	4.679775E-3
1.222000E-7	4.669498E-3
1.222500E-7	4.628387E-3
1.223000E-7	4.576999E-3
1.223500E-7	4.522185E-3
1.224000E-7	4.470796E-3
1.224500E-7	4.395427E-3
1.225000E-7	4.282372E-3
1.225500E-7	4.183021E-3
1.226000E-7	4.117930E-3
1.226500E-7	4.066541E-3
1.227000E-7	3.991172E-3
1.227500E-7	3.939783E-3
1.228000E-7	3.960339E-3
1.228500E-7	4.028856E-3
1.229000E-7	4.107652E-3
1.229500E-7	4.217280E-3
1.230000E-7	4.374871E-3
1.230500E-7	4.539314E-3
1.231000E-7	4.648942E-3
1.231500E-7	4.710608E-3
1.232000E-7	4.748293E-3
1.232500E-7	4.734590E-3
1.233000E-7	4.607832E-3
1.233500E-7	4.402278E-3
1.234000E-7	4.210429E-3
1.234500E-7	4.032282E-3
1.235000E-7	3.830155E-3
1.235500E-7	3.624601E-3
1.236000E-7	3.490992E-3
1.236500E-7	3.463585E-3
1.237000E-7	3.514973E-3
1.237500E-7	3.621175E-3
1.238000E-7	3.792470E-3
1.238500E-7	4.015153E-3
1.239000E-7	4.224132E-3
1.239500E-7	4.378297E-3
1.240000E-7	4.508481E-3
1.240500E-7	4.611258E-3
1.241000E-7	4.624961E-3
1.241500E-7	4.570147E-3
1.242000E-7	4.494777E-3
1.242500E-7	4.398852E-3
1.243000E-7	4.248113E-3
1.243500E-7	4.107652E-3
1.244000E-7	4.045986E-3
1.244500E-7	4.042560E-3
1.245000E-7	4.045986E-3
1.245500E-7	4.090522E-3
1.246000E-7	4.179596E-3
1.246500E-7	4.272095E-3
1.247000E-7	4.340612E-3
1.247500E-7	4.405704E-3
1.248000E-7	4.481074E-3
1.248500E-7	4.529036E-3
1.249000E-7	4.539314E-3
1.249500E-7	4.511907E-3
1.250000E-7	4.460519E-3
1.250500E-7	4.385149E-3
1.251000E-7	4.309779E-3
1.251500E-7	4.254965E-3
1.252000E-7	4.234410E-3
1.252500E-7	4.224132E-3
1.253000E-7	4.207003E-3
1.253500E-7	4.224132E-3
1.254000E-7	4.299502E-3
1.254500E-7	4.381723E-3
1.255000E-7	4.443389E-3
1.255500E-7	4.515333E-3
1.256000E-7	4.597554E-3
1.256500E-7	4.652368E-3
1.257000E-7	4.669498E-3
1.257500E-7	4.666072E-3
1.258000E-7	4.645517E-3
1.258500E-7	4.611258E-3
1.259000E-7	4.559869E-3
1.259500E-7	4.463944E-3
1.260000E-7	4.361168E-3
1.260500E-7	4.285798E-3
1.261000E-7	4.217280E-3
1.261500E-7	4.131633E-3
1.262000E-7	4.083671E-3
1.262500E-7	4.124781E-3
1.263000E-7	4.200151E-3
1.263500E-7	4.285798E-3
1.264000E-7	4.429686E-3
1.264500E-7	4.607832E-3
1.265000E-7	4.765423E-3
1.265500E-7	4.902458E-3
1.266000E-7	5.036068E-3
1.266500E-7	5.149122E-3
1.267000E-7	5.197085E-3
1.267500E-7	5.200511E-3
1.268000E-7	5.210788E-3
1.268500E-7	5.227918E-3
1.269000E-7	5.217640E-3
1.269500E-7	5.166252E-3
1.270000E-7	5.111438E-3
1.270500E-7	5.066901E-3
1.271000E-7	5.015513E-3
1.271500E-7	4.984680E-3
1.272000E-7	4.991531E-3
1.272500E-7	4.988106E-3
1.273000E-7	4.926440E-3
1.273500E-7	4.854496E-3
1.274000E-7	4.813385E-3
1.274500E-7	4.758571E-3
1.275000E-7	4.679775E-3
1.275500E-7	4.614684E-3
1.276000E-7	4.580425E-3
1.276500E-7	4.563295E-3
1.277000E-7	4.549592E-3
1.277500E-7	4.549592E-3
1.278000E-7	4.597554E-3
1.278500E-7	4.666072E-3
1.279000E-7	4.696905E-3
1.279500E-7	4.703757E-3
1.280000E-7	4.768849E-3
1.280500E-7	4.833941E-3
1.281000E-7	4.792830E-3
1.281500E-7	4.710608E-3
1.282000E-7	4.666072E-3
1.282500E-7	4.600980E-3
1.283000E-7	4.481074E-3
1.283500E-7	4.405704E-3
1.284000E-7	4.395427E-3
1.284500E-7	4.374871E-3
1.285000E-7	4.326909E-3
1.285500E-7	4.316631E-3
1.286000E-7	4.371445E-3
1.286500E-7	4.446815E-3
1.287000E-7	4.484500E-3
1.287500E-7	4.498203E-3
1.288000E-7	4.535888E-3
1.288500E-7	4.594128E-3
1.289000E-7	4.614684E-3
1.289500E-7	4.607832E-3
1.290000E-7	4.628387E-3
1.290500E-7	4.659220E-3
1.291000E-7	4.669498E-3
1.291500E-7	4.690053E-3
1.292000E-7	4.768849E-3
1.292500E-7	4.854496E-3
1.293000E-7	4.899032E-3
1.293500E-7	4.926440E-3
1.294000E-7	4.977828E-3
1.294500E-7	5.005235E-3
1.295000E-7	4.960698E-3
1.295500E-7	4.857922E-3
1.296000E-7	4.744867E-3
1.296500E-7	4.638665E-3
1.297000E-7	4.494777E-3
1.297500E-7	4.313205E-3
1.298000E-7	4.165892E-3
1.298500E-7	4.073393E-3
1.299000E-7	4.011727E-3
1.299500E-7	3.960339E-3
1.300000E-7	3.980894E-3
1.300500E-7	4.073393E-3
1.301000E-7	4.179596E-3
1.301500E-7	4.306353E-3
1.302000E-7	4.505055E-3
1.302500E-7	4.714034E-3
1.303000E-7	4.868199E-3
1.303500E-7	4.981254E-3
1.304000E-7	5.101160E-3
1.304500E-7	5.183381E-3
1.305000E-7	5.183381E-3
1.305500E-7	5.128567E-3
1.306000E-7	5.063475E-3
1.306500E-7	4.988106E-3
1.307000E-7	4.875051E-3
1.307500E-7	4.717460E-3
1.308000E-7	4.563295E-3
1.308500E-7	4.433111E-3
1.309000E-7	4.299502E-3
1.309500E-7	4.148763E-3
1.310000E-7	4.018579E-3
1.310500E-7	3.895247E-3
1.311000E-7	3.747933E-3
1.311500E-7	3.621175E-3
1.312000E-7	3.556084E-3
1.312500E-7	3.521825E-3
1.313000E-7	3.463585E-3
1.313500E-7	3.425900E-3
1.314000E-7	3.456733E-3
1.314500E-7	3.545806E-3
1.315000E-7	3.631453E-3
1.315500E-7	3.720526E-3
1.316000E-7	3.864414E-3
1.316500E-7	4.066541E-3
1.317000E-7	4.268669E-3
1.317500E-7	4.409130E-3
1.318000E-7	4.518759E-3
1.318500E-7	4.604406E-3
1.319000E-7	4.624961E-3
1.319500E-7	4.566721E-3
1.320000E-7	4.460519E-3
1.320500E-7	4.313205E-3
1.321000E-7	4.135059E-3
1.321500E-7	3.977468E-3
1.322000E-7	3.860988E-3
1.322500E-7	3.758211E-3
1.323000E-7	3.669138E-3
1.323500E-7	3.634879E-3
1.324000E-7	3.672564E-3
1.324500E-7	3.761637E-3
1.325000E-7	3.884969E-3
1.325500E-7	4.028856E-3
1.326000E-7	4.203577E-3
1.326500E-7	4.402278E-3
1.327000E-7	4.576999E-3
1.327500E-7	4.672924E-3
1.328000E-7	4.724312E-3
1.328500E-7	4.744867E-3
1.329000E-7	4.703757E-3
1.329500E-7	4.635239E-3
1.330000E-7	4.583851E-3
1.330500E-7	4.518759E-3
1.331000E-7	4.422834E-3
1.331500E-7	4.344038E-3
1.332000E-7	4.265243E-3
1.332500E-7	4.162466E-3
1.333000E-7	4.107652E-3
1.333500E-7	4.135059E-3
1.334000E-7	4.183021E-3
1.334500E-7	4.241262E-3
1.335000E-7	4.344038E-3
1.335500E-7	4.470796E-3
1.336000E-7	4.573573E-3
1.336500E-7	4.672924E-3
1.337000E-7	4.748293E-3
1.337500E-7	4.775700E-3
1.338000E-7	4.792830E-3
1.338500E-7	4.809959E-3
1.339000E-7	4.765423E-3
1.339500E-7	4.672924E-3
1.340000E-7	4.611258E-3
1.340500E-7	4.546166E-3
1.341000E-7	4.409130E-3
1.341500E-7	4.248113E-3
1.342000E-7	4.138485E-3
1.342500E-7	4.049412E-3
1.343000E-7	3.946635E-3
1.343500E-7	3.854136E-3
1.344000E-7	3.809599E-3
1.344500E-7	3.792470E-3
1.345000E-7	3.785618E-3
1.345500E-7	3.741082E-3
1.346000E-7	3.693119E-3
1.346500E-7	3.703397E-3
1.347000E-7	3.720526E-3
1.347500E-7	3.693119E-3
1.348000E-7	3.682841E-3
1.348500E-7	3.741082E-3
1.349000E-7	3.782192E-3
1.349500E-7	3.802748E-3
1.350000E-7	3.881543E-3
1.350500E-7	3.994597E-3
1.351000E-7	4.066541E-3
1.351500E-7	4.141911E-3
1.352000E-7	4.275520E-3
1.352500E-7	4.398852E-3
1.353000E-7	4.501629E-3
1.353500E-7	4.604406E-3
1.354000E-7	4.717460E-3
1.354500E-7	4.792830E-3
1.355000E-7	4.830515E-3
1.355500E-7	4.823663E-3
1.356000E-7	4.779126E-3
1.356500E-7	4.720886E-3
1.357000E-7	4.624961E-3
1.357500E-7	4.494777E-3
1.358000E-7	4.402278E-3
1.358500E-7	4.344038E-3
1.359000E-7	4.268669E-3
1.359500E-7	4.207003E-3
1.360000E-7	4.230984E-3
1.360500E-7	4.306353E-3
1.361000E-7	4.392001E-3
1.361500E-7	4.511907E-3
1.362000E-7	4.669498E-3
1.362500E-7	4.813385E-3
1.363000E-7	4.912736E-3
1.363500E-7	4.984680E-3
1.364000E-7	5.008661E-3
1.364500E-7	4.984680E-3
1.365000E-7	4.940143E-3
1.365500E-7	4.895607E-3
1.366000E-7	4.844218E-3
1.366500E-7	4.789404E-3
1.367000E-7	4.734590E-3
1.367500E-7	4.676350E-3
1.368000E-7	4.645517E-3
1.368500E-7	4.669498E-3
1.369000E-7	4.693479E-3
1.369500E-7	4.696905E-3
1.370000E-7	4.734590E-3
1.370500E-7	4.820237E-3
1.371000E-7	4.868199E-3
1.371500E-7	4.861348E-3
1.372000E-7	4.868199E-3
1.372500E-7	4.888755E-3
1.373000E-7	4.881903E-3
1.373500E-7	4.892181E-3
1.374000E-7	4.960698E-3
1.374500E-7	5.022364E-3
1.375000E-7	5.060049E-3
1.375500E-7	5.125141E-3
1.376000E-7	5.221066E-3
1.376500E-7	5.289584E-3
1.377000E-7	5.327269E-3
1.377500E-7	5.347824E-3
1.378000E-7	5.354676E-3
1.378500E-7	5.347824E-3
1.379000E-7	5.289584E-3
1.379500E-7	5.190233E-3
1.380000E-7	5.101160E-3
1.380500E-7	5.025790E-3
1.381000E-7	4.912736E-3
1.381500E-7	4.789404E-3
1.382000E-7	4.734590E-3
1.382500E-7	4.727738E-3
1.383000E-7	4.696905E-3
1.383500E-7	4.662646E-3
1.384000E-7	4.690053E-3
1.384500E-7	4.744867E-3
1.385000E-7	4.755145E-3
1.385500E-7	4.758571E-3
1.386000E-7	4.799682E-3
1.386500E-7	4.820237E-3
1.387000E-7	4.765423E-3
1.387500E-7	4.693479E-3
1.388000E-7	4.659220E-3
1.388500E-7	4.638665E-3
1.389000E-7	4.594128E-3
1.389500E-7	4.559869E-3
1.390000E-7	4.563295E-3
1.390500E-7	4.600980E-3
1.391000E-7	4.655794E-3
1.391500E-7	4.731164E-3
1.392000E-7	4.837366E-3
1.392500E-7	4.943569E-3
1.393000E-7	5.008661E-3
1.393500E-7	5.036068E-3
1.394000E-7	5.080605E-3
1.394500E-7	5.121715E-3
1.395000E-7	5.094308E-3
1.395500E-7	5.015513E-3
1.396000E-7	4.960698E-3
1.396500E-7	4.923014E-3
1.397000E-7	4.840792E-3
1.397500E-7	4.731164E-3
1.398000E-7	4.659220E-3
1.398500E-7	4.628387E-3
1.399000E-7	4.607832E-3
1.399500E-7	4.580425E-3
1.400000E-7	4.546166E-3
1.400500E-7	4.525610E-3
1.401000E-7	4.501629E-3
1.401500E-7	4.446815E-3
1.402000E-7	4.378297E-3
1.402500E-7	4.350890E-3
1.403000E-7	4.337186E-3
1.403500E-7	4.299502E-3
1.404000E-7	4.258391E-3
1.404500E-7	4.254965E-3
1.405000E-7	4.254965E-3
1.405500E-7	4.254965E-3
1.406000E-7	4.268669E-3
1.406500E-7	4.299502E-3
1.407000E-7	4.320057E-3
1.407500E-7	4.340612E-3
1.408000E-7	4.378297E-3
1.408500E-7	4.405704E-3
1.409000E-7	4.398852E-3
1.409500E-7	4.392001E-3
1.410000E-7	4.415982E-3
1.410500E-7	4.446815E-3
1.411000E-7	4.457093E-3
1.411500E-7	4.446815E-3
1.412000E-7	4.436537E-3
1.412500E-7	4.433111E-3
1.413000E-7	4.412556E-3
1.413500E-7	4.364594E-3
1.414000E-7	4.292650E-3
1.414500E-7	4.230984E-3
1.415000E-7	4.138485E-3
1.415500E-7	4.025430E-3
1.416000E-7	3.939783E-3
1.416500E-7	3.905524E-3
1.417000E-7	3.881543E-3
1.417500E-7	3.891821E-3
1.418000E-7	3.960339E-3
1.418500E-7	4.052838E-3
1.419000E-7	4.117930E-3
1.419500E-7	4.203577E-3
1.420000E-7	4.316631E-3
1.420500E-7	4.398852E-3
1.421000E-7	4.419408E-3
1.421500E-7	4.415982E-3
1.422000E-7	4.405704E-3
1.422500E-7	4.354316E-3
1.423000E-7	4.248113E-3
1.423500E-7	4.128207E-3
1.424000E-7	4.059689E-3
1.424500E-7	4.018579E-3
1.425000E-7	3.974042E-3
1.425500E-7	3.963764E-3
1.426000E-7	4.042560E-3
1.426500E-7	4.155614E-3
1.427000E-7	4.241262E-3
1.427500E-7	4.330335E-3
1.428000E-7	4.450241E-3
1.428500E-7	4.573573E-3
1.429000E-7	4.662646E-3
1.429500E-7	4.703757E-3
1.430000E-7	4.724312E-3
1.430500E-7	4.782552E-3
1.431000E-7	4.809959E-3
1.431500E-7	4.744867E-3
1.432000E-7	4.690053E-3
1.432500E-7	4.710608E-3
1.433000E-7	4.693479E-3
1.433500E-7	4.600980E-3
1.434000E-7	4.576999E-3
1.434500E-7	4.604406E-3
1.435000E-7	4.563295E-3
1.435500E-7	4.522185E-3
1.436000E-7	4.594128E-3
1.436500E-7	4.690053E-3
1.437000E-7	4.683201E-3
1.437500E-7	4.669498E-3
1.438000E-7	4.717460E-3
1.438500E-7	4.761997E-3
1.439000E-7	4.741442E-3
1.439500E-7	4.707183E-3
1.440000E-7	4.686627E-3
1.440500E-7	4.628387E-3
1.441000E-7	4.515333E-3
1.441500E-7	4.392001E-3
1.442000E-7	4.285798E-3
1.442500E-7	4.169318E-3
1.443000E-7	4.039134E-3
1.443500E-7	3.946635E-3
1.444000E-7	3.915802E-3
1.444500E-7	3.908950E-3
1.445000E-7	3.902098E-3
1.445500E-7	3.939783E-3
1.446000E-7	4.069967E-3
1.446500E-7	4.203577E-3
1.447000E-7	4.275520E-3
1.447500E-7	4.333761E-3
1.448000E-7	4.412556E-3
1.448500E-7	4.477648E-3
1.449000E-7	4.498203E-3
1.449500E-7	4.494777E-3
1.450000E-7	4.467370E-3
1.450500E-7	4.409130E-3
1.451000E-7	4.333761E-3
1.451500E-7	4.261817E-3
1.452000E-7	4.210429E-3
1.452500E-7	4.179596E-3
1.453000E-7	4.152188E-3
1.453500E-7	4.152188E-3
1.454000E-7	4.217280E-3
1.454500E-7	4.302928E-3
1.455000E-7	4.364594E-3
1.455500E-7	4.463944E-3
1.456000E-7	4.614684E-3
1.456500E-7	4.741442E-3
1.457000E-7	4.827089E-3
1.457500E-7	4.943569E-3
1.458000E-7	5.066901E-3
1.458500E-7	5.135419E-3
1.459000E-7	5.186807E-3
1.459500E-7	5.258751E-3
1.460000E-7	5.316991E-3
1.460500E-7	5.344398E-3
1.461000E-7	5.337546E-3
1.461500E-7	5.289584E-3
1.462000E-7	5.251899E-3
1.462500E-7	5.227918E-3
1.463000E-7	5.145697E-3
1.463500E-7	5.001809E-3
1.464000E-7	4.895607E-3
1.464500E-7	4.809959E-3
1.465000E-7	4.652368E-3
1.465500E-7	4.457093E-3
1.466000E-7	4.320057E-3
1.466500E-7	4.234410E-3
1.467000E-7	4.145337E-3
1.467500E-7	4.049412E-3
1.468000E-7	3.998023E-3
1.468500E-7	3.991172E-3
1.469000E-7	3.977468E-3
1.469500E-7	3.946635E-3
1.470000E-7	3.953487E-3
1.470500E-7	3.980894E-3
1.471000E-7	3.967190E-3
1.471500E-7	3.912376E-3
1.472000E-7	3.878117E-3
1.472500E-7	3.860988E-3
1.473000E-7	3.830155E-3
1.473500E-7	3.795896E-3
1.474000E-7	3.809599E-3
1.474500E-7	3.857562E-3
1.475000E-7	3.932931E-3
1.475500E-7	4.042560E-3
1.476000E-7	4.186447E-3
1.476500E-7	4.344038E-3
1.477000E-7	4.491352E-3
1.477500E-7	4.624961E-3
1.478000E-7	4.720886E-3
1.478500E-7	4.758571E-3
1.479000E-7	4.727738E-3
1.479500E-7	4.628387E-3
1.480000E-7	4.498203E-3
1.480500E-7	4.347464E-3
1.481000E-7	4.152188E-3
1.481500E-7	3.950061E-3
1.482000E-7	3.809599E-3
1.482500E-7	3.723952E-3
1.483000E-7	3.669138E-3
1.483500E-7	3.686267E-3
1.484000E-7	3.813025E-3
1.484500E-7	4.018579E-3
1.485000E-7	4.227558E-3
1.485500E-7	4.453667E-3
1.486000E-7	4.724312E-3
1.486500E-7	4.981254E-3
1.487000E-7	5.135419E-3
1.487500E-7	5.214214E-3
1.488000E-7	5.272454E-3
1.488500E-7	5.255325E-3
1.489000E-7	5.145697E-3
1.489500E-7	4.988106E-3
1.490000E-7	4.796256E-3
1.490500E-7	4.546166E-3
1.491000E-7	4.289224E-3
1.491500E-7	4.097374E-3
1.492000E-7	3.950061E-3
1.492500E-7	3.833581E-3
1.493000E-7	3.771915E-3
1.493500E-7	3.771915E-3
1.494000E-7	3.837007E-3
1.494500E-7	3.943209E-3
1.495000E-7	4.066541E-3
1.495500E-7	4.186447E-3
1.496000E-7	4.330335E-3
1.496500E-7	4.474222E-3
1.497000E-7	4.553018E-3
1.497500E-7	4.583851E-3
1.498000E-7	4.607832E-3
1.498500E-7	4.600980E-3
1.499000E-7	4.546166E-3
1.499500E-7	4.491352E-3
1.500000E-7	4.457093E-3
1.500500E-7	4.395427E-3
1.501000E-7	4.316631E-3
1.501500E-7	4.292650E-3
1.502000E-7	4.333761E-3
1.502500E-7	4.412556E-3
1.503000E-7	4.515333E-3
1.503500E-7	4.624961E-3
1.504000E-7	4.748293E-3
1.504500E-7	4.878477E-3
1.505000E-7	4.981254E-3
1.505500E-7	5.022364E-3
1.506000E-7	5.042920E-3
1.506500E-7	5.073753E-3
1.507000E-7	5.046346E-3
1.507500E-7	4.957273E-3
1.508000E-7	4.892181E-3
1.508500E-7	4.844218E-3
1.509000E-7	4.758571E-3
1.509500E-7	4.686627E-3
1.510000E-7	4.690053E-3
1.510500E-7	4.690053E-3
1.511000E-7	4.666072E-3
1.511500E-7	4.690053E-3
1.512000E-7	4.761997E-3
1.512500E-7	4.820237E-3
1.513000E-7	4.840792E-3
1.513500E-7	4.830515E-3
1.514000E-7	4.813385E-3
1.514500E-7	4.782552E-3
1.515000E-7	4.714034E-3
1.515500E-7	4.600980E-3
1.516000E-7	4.508481E-3
1.516500E-7	4.433111E-3
1.517000E-7	4.313205E-3
1.517500E-7	4.200151E-3
1.518000E-7	4.162466E-3
1.518500E-7	4.131633E-3
1.519000E-7	4.059689E-3
1.519500E-7	4.025430E-3
1.520000E-7	4.039134E-3
1.520500E-7	4.022005E-3
1.521000E-7	4.001449E-3
1.521500E-7	4.022005E-3
1.522000E-7	4.069967E-3
1.522500E-7	4.114504E-3
1.523000E-7	4.169318E-3
1.523500E-7	4.237836E-3
1.524000E-7	4.313205E-3
1.524500E-7	4.422834E-3
1.525000E-7	4.549592E-3
1.525500E-7	4.666072E-3
1.526000E-7	4.796256E-3
1.526500E-7	4.946995E-3
1.527000E-7	5.056623E-3
1.527500E-7	5.128567E-3
1.528000E-7	5.210788E-3
1.528500E-7	5.265603E-3
1.529000E-7	5.231344E-3
1.529500E-7	5.142271E-3
1.530000E-7	5.087456E-3
1.530500E-7	5.053198E-3
1.531000E-7	4.957273E-3
1.531500E-7	4.820237E-3
1.532000E-7	4.707183E-3
1.532500E-7	4.614684E-3
1.533000E-7	4.511907E-3
1.533500E-7	4.405704E-3
1.534000E-7	4.347464E-3
1.534500E-7	4.320057E-3
1.535000E-7	4.309779E-3
1.535500E-7	4.292650E-3
1.536000E-7	4.289224E-3
1.536500E-7	4.309779E-3
1.537000E-7	4.316631E-3
1.537500E-7	4.289224E-3
1.538000E-7	4.278946E-3
1.538500E-7	4.289224E-3
1.539000E-7	4.272095E-3
1.539500E-7	4.241262E-3
1.540000E-7	4.275520E-3
1.540500E-7	4.364594E-3
1.541000E-7	4.450241E-3
1.541500E-7	4.529036E-3
1.542000E-7	4.628387E-3
1.542500E-7	4.748293E-3
1.543000E-7	4.844218E-3
1.543500E-7	4.909310E-3
1.544000E-7	4.936717E-3
1.544500E-7	4.940143E-3
1.545000E-7	4.881903E-3
1.545500E-7	4.738016E-3
1.546000E-7	4.570147E-3
1.546500E-7	4.426260E-3
1.547000E-7	4.265243E-3
1.547500E-7	4.100800E-3
1.548000E-7	4.001449E-3
1.548500E-7	3.967190E-3
1.549000E-7	3.956913E-3
1.549500E-7	4.015153E-3
1.550000E-7	4.165892E-3
1.550500E-7	4.350890E-3
1.551000E-7	4.525610E-3
1.551500E-7	4.686627E-3
1.552000E-7	4.837366E-3
1.552500E-7	4.967550E-3
1.553000E-7	5.066901E-3
1.553500E-7	5.104586E-3
1.554000E-7	5.097734E-3
1.554500E-7	5.070327E-3
1.555000E-7	5.008661E-3
1.555500E-7	4.899032E-3
1.556000E-7	4.799682E-3
1.556500E-7	4.738016E-3
1.557000E-7	4.672924E-3
1.557500E-7	4.645517E-3
1.558000E-7	4.683201E-3
1.558500E-7	4.744867E-3
1.559000E-7	4.775700E-3
1.559500E-7	4.823663E-3
1.560000E-7	4.895607E-3
1.560500E-7	4.946995E-3
1.561000E-7	4.970976E-3
1.561500E-7	5.001809E-3
1.562000E-7	5.029216E-3
1.562500E-7	5.018939E-3
1.563000E-7	4.960698E-3
1.563500E-7	4.864774E-3
1.564000E-7	4.751719E-3
1.564500E-7	4.645517E-3
1.565000E-7	4.546166E-3
1.565500E-7	4.446815E-3
1.566000E-7	4.381723E-3
1.566500E-7	4.371445E-3
1.567000E-7	4.361168E-3
1.567500E-7	4.350890E-3
1.568000E-7	4.385149E-3
1.568500E-7	4.436537E-3
1.569000E-7	4.446815E-3
1.569500E-7	4.457093E-3
1.570000E-7	4.501629E-3
1.570500E-7	4.522185E-3
1.571000E-7	4.518759E-3
1.571500E-7	4.539314E-3
1.572000E-7	4.573573E-3
1.572500E-7	4.587276E-3
1.573000E-7	4.604406E-3
1.573500E-7	4.611258E-3
1.574000E-7	4.594128E-3
1.574500E-7	4.576999E-3
1.575000E-7	4.539314E-3
1.575500E-7	4.426260E-3
1.576000E-7	4.306353E-3
1.576500E-7	4.234410E-3
1.577000E-7	4.131633E-3
1.577500E-7	3.991172E-3
1.578000E-7	3.919228E-3
1.578500E-7	3.922654E-3
1.579000E-7	3.926080E-3
1.579500E-7	3.967190E-3
1.580000E-7	4.107652E-3
1.580500E-7	4.268669E-3
1.581000E-7	4.412556E-3
1.581500E-7	4.566721E-3
1.582000E-7	4.717460E-3
1.582500E-7	4.816811E-3
1.583000E-7	4.830515E-3
1.583500E-7	4.765423E-3
1.584000E-7	4.655794E-3
1.584500E-7	4.535888E-3
1.585000E-7	4.402278E-3
1.585500E-7	4.265243E-3
1.586000E-7	4.169318E-3
1.586500E-7	4.131633E-3
1.587000E-7	4.135059E-3
1.587500E-7	4.200151E-3
1.588000E-7	4.347464E-3
1.588500E-7	4.525610E-3
1.589000E-7	4.669498E-3
1.589500E-7	4.806533E-3
1.590000E-7	4.940143E-3
1.590500E-7	5.015513E-3
1.591000E-7	4.991531E-3
1.591500E-7	4.902458E-3
1.592000E-7	4.779126E-3
1.592500E-7	4.628387E-3
1.593000E-7	4.450241E-3
1.593500E-7	4.261817E-3
1.594000E-7	4.107652E-3
1.594500E-7	3.998023E-3
1.595000E-7	3.932931E-3
1.595500E-7	3.905524E-3
1.596000E-7	3.932931E-3
1.596500E-7	4.001449E-3
1.597000E-7	4.073393E-3
1.597500E-7	4.141911E-3
1.598000E-7	4.244687E-3
1.598500E-7	4.340612E-3
1.599000E-7	4.371445E-3
1.599500E-7	4.371445E-3
1.600000E-7	4.388575E-3
1.600500E-7	4.409130E-3
1.601000E-7	4.395427E-3
1.601500E-7	4.412556E-3
1.602000E-7	4.484500E-3
1.602500E-7	4.580425E-3
1.603000E-7	4.672924E-3
1.603500E-7	4.765423E-3
1.604000E-7	4.892181E-3
1.604500E-7	5.029216E-3
1.605000E-7	5.128567E-3
1.605500E-7	5.173104E-3
1.606000E-7	5.193659E-3
1.606500E-7	5.166252E-3
1.607000E-7	5.080605E-3
1.607500E-7	4.977828E-3
1.608000E-7	4.875051E-3
1.608500E-7	4.748293E-3
1.609000E-7	4.607832E-3
1.609500E-7	4.518759E-3
1.610000E-7	4.501629E-3
1.610500E-7	4.525610E-3
1.611000E-7	4.563295E-3
1.611500E-7	4.611258E-3
1.612000E-7	4.683201E-3
1.612500E-7	4.775700E-3
1.613000E-7	4.847644E-3
1.613500E-7	4.864774E-3
1.614000E-7	4.864774E-3
1.614500E-7	4.864774E-3
1.615000E-7	4.823663E-3
1.615500E-7	4.748293E-3
1.616000E-7	4.686627E-3
1.616500E-7	4.638665E-3
1.617000E-7	4.573573E-3
1.617500E-7	4.487926E-3
1.618000E-7	4.439963E-3
1.618500E-7	4.429686E-3
1.619000E-7	4.398852E-3
1.619500E-7	4.340612E-3
1.620000E-7	4.326909E-3
1.620500E-7	4.333761E-3
1.621000E-7	4.289224E-3
1.621500E-7	4.234410E-3
1.622000E-7	4.234410E-3
1.622500E-7	4.254965E-3
1.623000E-7	4.261817E-3
1.623500E-7	4.292650E-3
1.624000E-7	4.368019E-3
1.624500E-7	4.422834E-3
1.625000E-7	4.436537E-3
1.625500E-7	4.439963E-3
1.626000E-7	4.470796E-3
1.626500E-7	4.501629E-3
1.627000E-7	4.467370E-3
1.627500E-7	4.392001E-3
1.628000E-7	4.368019E-3
1.628500E-7	4.350890E-3
1.629000E-7	4.265243E-3
1.629500E-7	4.179596E-3
1.630000E-7	4.179596E-3
1.630500E-7	4.189873E-3
1.631000E-7	4.155614E-3
1.631500E-7	4.148763E-3
1.632000E-7	4.183021E-3
1.632500E-7	4.220706E-3
1.633000E-7	4.237836E-3
1.633500E-7	4.275520E-3
1.634000E-7	4.337186E-3
1.634500E-7	4.426260E-3
1.635000E-7	4.501629E-3
1.635500E-7	4.570147E-3
1.636000E-7	4.696905E-3
1.636500E-7	4.840792E-3
1.637000E-7	4.923014E-3
1.637500E-7	4.967550E-3
1.638000E-7	5.046346E-3
1.638500E-7	5.090882E-3
1.639000E-7	5.039494E-3
1.639500E-7	4.946995E-3
1.640000E-7	4.875051E-3
1.640500E-7	4.799682E-3
1.641000E-7	4.683201E-3
1.641500E-7	4.566721E-3
1.642000E-7	4.484500E-3
1.642500E-7	4.439963E-3
1.643000E-7	4.412556E-3
1.643500E-7	4.388575E-3
1.644000E-7	4.402278E-3
1.644500E-7	4.481074E-3
1.645000E-7	4.573573E-3
1.645500E-7	4.618109E-3
1.646000E-7	4.652368E-3
1.646500E-7	4.714034E-3
1.647000E-7	4.744867E-3
1.647500E-7	4.710608E-3
1.648000E-7	4.672924E-3
1.648500E-7	4.669498E-3
1.649000E-7	4.624961E-3
1.649500E-7	4.532462E-3
1.650000E-7	4.498203E-3
1.650500E-7	4.518759E-3
1.651000E-7	4.501629E-3
1.651500E-7	4.453667E-3
1.652000E-7	4.429686E-3
1.652500E-7	4.409130E-3
1.653000E-7	4.371445E-3
1.653500E-7	4.361168E-3
1.654000E-7	4.385149E-3
1.654500E-7	4.395427E-3
1.655000E-7	4.388575E-3
1.655500E-7	4.405704E-3
1.656000E-7	4.481074E-3
1.656500E-7	4.559869E-3
1.657000E-7	4.590702E-3
1.657500E-7	4.628387E-3
1.658000E-7	4.727738E-3
1.658500E-7	4.820237E-3
1.659000E-7	4.851070E-3
1.659500E-7	4.854496E-3
1.660000E-7	4.851070E-3
1.660500E-7	4.827089E-3
1.661000E-7	4.772275E-3
1.661500E-7	4.700331E-3
1.662000E-7	4.618109E-3
1.662500E-7	4.559869E-3
1.663000E-7	4.522185E-3
1.663500E-7	4.487926E-3
1.664000E-7	4.470796E-3
1.664500E-7	4.498203E-3
1.665000E-7	4.518759E-3
1.665500E-7	4.535888E-3
1.666000E-7	4.587276E-3
1.666500E-7	4.635239E-3
1.667000E-7	4.614684E-3
1.667500E-7	4.563295E-3
1.668000E-7	4.532462E-3
1.668500E-7	4.484500E-3
1.669000E-7	4.395427E-3
1.669500E-7	4.323483E-3
1.670000E-7	4.299502E-3
1.670500E-7	4.302928E-3
1.671000E-7	4.302928E-3
1.671500E-7	4.330335E-3
1.672000E-7	4.398852E-3
1.672500E-7	4.481074E-3
1.673000E-7	4.553018E-3
1.673500E-7	4.624961E-3
1.674000E-7	4.714034E-3
1.674500E-7	4.768849E-3
1.675000E-7	4.744867E-3
1.675500E-7	4.690053E-3
1.676000E-7	4.638665E-3
1.676500E-7	4.587276E-3
1.677000E-7	4.522185E-3
1.677500E-7	4.467370E-3
1.678000E-7	4.453667E-3
1.678500E-7	4.484500E-3
1.679000E-7	4.549592E-3
1.679500E-7	4.635239E-3
1.680000E-7	4.748293E-3
1.680500E-7	4.868199E-3
1.681000E-7	4.936717E-3
1.681500E-7	4.936717E-3
1.682000E-7	4.926440E-3
1.682500E-7	4.923014E-3
1.683000E-7	4.871625E-3
1.683500E-7	4.744867E-3
1.684000E-7	4.597554E-3
1.684500E-7	4.481074E-3
1.685000E-7	4.344038E-3
1.685500E-7	4.193299E-3
1.686000E-7	4.104226E-3
1.686500E-7	4.073393E-3
1.687000E-7	4.039134E-3
1.687500E-7	4.028856E-3
1.688000E-7	4.093948E-3
1.688500E-7	4.176170E-3
1.689000E-7	4.230984E-3
1.689500E-7	4.278946E-3
1.690000E-7	4.340612E-3
1.690500E-7	4.398852E-3
1.691000E-7	4.436537E-3
1.691500E-7	4.457093E-3
1.692000E-7	4.463944E-3
1.692500E-7	4.463944E-3
1.693000E-7	4.446815E-3
1.693500E-7	4.388575E-3
1.694000E-7	4.340612E-3
1.694500E-7	4.337186E-3
1.695000E-7	4.333761E-3
1.695500E-7	4.306353E-3
1.696000E-7	4.337186E-3
1.696500E-7	4.419408E-3
1.697000E-7	4.446815E-3
1.697500E-7	4.446815E-3
1.698000E-7	4.511907E-3
1.698500E-7	4.604406E-3
1.699000E-7	4.631813E-3
1.699500E-7	4.642091E-3
1.700000E-7	4.693479E-3
1.700500E-7	4.731164E-3
1.701000E-7	4.696905E-3
1.701500E-7	4.635239E-3
1.702000E-7	4.566721E-3
1.702500E-7	4.481074E-3
1.703000E-7	4.368019E-3
1.703500E-7	4.258391E-3
1.704000E-7	4.193299E-3
1.704500E-7	4.196725E-3
1.705000E-7	4.230984E-3
1.705500E-7	4.254965E-3
1.706000E-7	4.333761E-3
1.706500E-7	4.474222E-3
1.707000E-7	4.580425E-3
1.707500E-7	4.659220E-3
1.708000E-7	4.775700E-3
1.708500E-7	4.899032E-3
1.709000E-7	4.940143E-3
1.709500E-7	4.919588E-3
1.710000E-7	4.905884E-3
1.710500E-7	4.888755E-3
1.711000E-7	4.837366E-3
1.711500E-7	4.768849E-3
1.712000E-7	4.693479E-3
1.712500E-7	4.635239E-3
1.713000E-7	4.597554E-3
1.713500E-7	4.573573E-3
1.714000E-7	4.573573E-3
1.714500E-7	4.597554E-3
1.715000E-7	4.614684E-3
1.715500E-7	4.618109E-3
1.716000E-7	4.655794E-3
1.716500E-7	4.717460E-3
1.717000E-7	4.703757E-3
1.717500E-7	4.635239E-3
1.718000E-7	4.611258E-3
1.718500E-7	4.587276E-3
1.719000E-7	4.470796E-3
1.719500E-7	4.313205E-3
1.720000E-7	4.227558E-3
1.720500E-7	4.176170E-3
1.721000E-7	4.104226E-3
1.721500E-7	4.056263E-3
1.722000E-7	4.090522E-3
1.722500E-7	4.169318E-3
1.723000E-7	4.254965E-3
1.723500E-7	4.378297E-3
1.724000E-7	4.542740E-3
1.724500E-7	4.679775E-3
1.725000E-7	4.741442E-3
1.725500E-7	4.768849E-3
1.726000E-7	4.806533E-3
1.726500E-7	4.823663E-3
1.727000E-7	4.761997E-3
1.727500E-7	4.638665E-3
1.728000E-7	4.522185E-3
1.728500E-7	4.412556E-3
1.729000E-7	4.275520E-3
1.729500E-7	4.155614E-3
1.730000E-7	4.100800E-3
1.730500E-7	4.090522E-3
1.731000E-7	4.107652E-3
1.731500E-7	4.183021E-3
1.732000E-7	4.323483E-3
1.732500E-7	4.477648E-3
1.733000E-7	4.621535E-3
1.733500E-7	4.779126E-3
1.734000E-7	4.970976E-3
1.734500E-7	5.128567E-3
1.735000E-7	5.207363E-3
1.735500E-7	5.258751E-3
1.736000E-7	5.310139E-3
1.736500E-7	5.313565E-3
1.737000E-7	5.241621E-3
1.737500E-7	5.162826E-3
1.738000E-7	5.104586E-3
1.738500E-7	5.029216E-3
1.739000E-7	4.912736E-3
1.739500E-7	4.830515E-3
1.740000E-7	4.809959E-3
1.740500E-7	4.813385E-3
1.741000E-7	4.803108E-3
1.741500E-7	4.809959E-3
1.742000E-7	4.830515E-3
1.742500E-7	4.840792E-3
1.743000E-7	4.816811E-3
1.743500E-7	4.761997E-3
1.744000E-7	4.690053E-3
1.744500E-7	4.594128E-3
1.745000E-7	4.477648E-3
1.745500E-7	4.364594E-3
1.746000E-7	4.272095E-3
1.746500E-7	4.179596E-3
1.747000E-7	4.087097E-3
1.747500E-7	4.025430E-3
1.748000E-7	4.008301E-3
1.748500E-7	4.025430E-3
1.749000E-7	4.073393E-3
1.749500E-7	4.131633E-3
1.750000E-7	4.220706E-3
1.750500E-7	4.354316E-3
1.751000E-7	4.484500E-3
1.751500E-7	4.546166E-3
1.752000E-7	4.594128E-3
1.752500E-7	4.679775E-3
1.753000E-7	4.710608E-3
1.753500E-7	4.659220E-3
1.754000E-7	4.614684E-3
1.754500E-7	4.600980E-3
1.755000E-7	4.522185E-3
1.755500E-7	4.412556E-3
1.756000E-7	4.361168E-3
1.756500E-7	4.323483E-3
1.757000E-7	4.230984E-3
1.757500E-7	4.148763E-3
1.758000E-7	4.141911E-3
1.758500E-7	4.169318E-3
1.759000E-7	4.179596E-3
1.759500E-7	4.172744E-3
1.760000E-7	4.159040E-3
1.760500E-7	4.159040E-3
1.761000E-7	4.193299E-3
1.761500E-7	4.224132E-3
1.762000E-7	4.244687E-3
1.762500E-7	4.302928E-3
1.763000E-7	4.378297E-3
1.763500E-7	4.429686E-3
1.764000E-7	4.491352E-3
1.764500E-7	4.587276E-3
1.765000E-7	4.645517E-3
1.765500E-7	4.683201E-3
1.766000E-7	4.758571E-3
1.766500E-7	4.844218E-3
1.767000E-7	4.847644E-3
1.767500E-7	4.844218E-3
1.768000E-7	4.902458E-3
1.768500E-7	4.974402E-3
1.769000E-7	5.005235E-3
1.769500E-7	5.039494E-3
1.770000E-7	5.094308E-3
1.770500E-7	5.131993E-3
1.771000E-7	5.135419E-3
1.771500E-7	5.111438E-3
1.772000E-7	5.090882E-3
1.772500E-7	5.056623E-3
1.773000E-7	4.981254E-3
1.773500E-7	4.861348E-3
1.774000E-7	4.775700E-3
1.774500E-7	4.720886E-3
1.775000E-7	4.648942E-3
1.775500E-7	4.590702E-3
1.776000E-7	4.580425E-3
1.776500E-7	4.580425E-3
1.777000E-7	4.539314E-3
1.777500E-7	4.549592E-3
1.778000E-7	4.618109E-3
1.778500E-7	4.652368E-3
1.779000E-7	4.621535E-3
1.779500E-7	4.604406E-3
1.780000E-7	4.607832E-3
1.780500E-7	4.600980E-3
1.781000E-7	4.594128E-3
1.781500E-7	4.594128E-3
1.782000E-7	4.611258E-3
1.782500E-7	4.666072E-3
1.783000E-7	4.720886E-3
1.783500E-7	4.738016E-3
1.784000E-7	4.768849E-3
1.784500E-7	4.827089E-3
1.785000E-7	4.847644E-3
1.785500E-7	4.837366E-3
1.786000E-7	4.851070E-3
1.786500E-7	4.837366E-3
1.787000E-7	4.738016E-3
1.787500E-7	4.611258E-3
1.788000E-7	4.501629E-3
1.788500E-7	4.368019E-3
1.789000E-7	4.200151E-3
1.789500E-7	4.049412E-3
1.790000E-7	3.912376E-3
1.790500E-7	3.802748E-3
1.791000E-7	3.744507E-3
1.791500E-7	3.679416E-3
1.792000E-7	3.628027E-3
1.792500E-7	3.655434E-3
1.793000E-7	3.730804E-3
1.793500E-7	3.789044E-3
1.794000E-7	3.898673E-3
1.794500E-7	4.069967E-3
1.795000E-7	4.193299E-3
1.795500E-7	4.299502E-3
1.796000E-7	4.470796E-3
1.796500E-7	4.642091E-3
1.797000E-7	4.717460E-3
1.797500E-7	4.775700E-3
1.798000E-7	4.861348E-3
1.798500E-7	4.912736E-3
1.799000E-7	4.905884E-3
1.799500E-7	4.878477E-3
1.800000E-7	4.830515E-3
1.800500E-7	4.772275E-3
1.801000E-7	4.700331E-3
1.801500E-7	4.607832E-3
1.802000E-7	4.525610E-3
1.802500E-7	4.494777E-3
1.803000E-7	4.453667E-3
1.803500E-7	4.368019E-3
1.804000E-7	4.292650E-3
1.804500E-7	4.254965E-3
1.805000E-7	4.176170E-3
1.805500E-7	4.063115E-3
1.806000E-7	4.004875E-3
1.806500E-7	3.970616E-3
1.807000E-7	3.878117E-3
1.807500E-7	3.782192E-3
1.808000E-7	3.754785E-3
1.808500E-7	3.761637E-3
1.809000E-7	3.775341E-3
1.809500E-7	3.833581E-3
1.810000E-7	3.953487E-3
1.810500E-7	4.107652E-3
1.811000E-7	4.285798E-3
1.811500E-7	4.498203E-3
1.812000E-7	4.717460E-3
1.812500E-7	4.909310E-3
1.813000E-7	5.049772E-3
1.813500E-7	5.155974E-3
1.814000E-7	5.231344E-3
1.814500E-7	5.272454E-3
1.815000E-7	5.245047E-3
1.815500E-7	5.159400E-3
1.816000E-7	5.060049E-3
1.816500E-7	4.970976E-3
1.817000E-7	4.868199E-3
1.817500E-7	4.751719E-3
1.818000E-7	4.659220E-3
1.818500E-7	4.607832E-3
1.819000E-7	4.553018E-3
1.819500E-7	4.501629E-3
1.820000E-7	4.491352E-3
1.820500E-7	4.508481E-3
1.821000E-7	4.494777E-3
1.821500E-7	4.426260E-3
1.822000E-7	4.368019E-3
1.822500E-7	4.320057E-3
1.823000E-7	4.230984E-3
1.823500E-7	4.111078E-3
1.824000E-7	4.035708E-3
1.824500E-7	3.977468E-3
1.825000E-7	3.864414E-3
1.825500E-7	3.768489E-3
1.826000E-7	3.789044E-3
1.826500E-7	3.864414E-3
1.827000E-7	3.905524E-3
1.827500E-7	3.956913E-3
1.828000E-7	4.083671E-3
1.828500E-7	4.213854E-3
1.829000E-7	4.254965E-3
1.829500E-7	4.268669E-3
1.830000E-7	4.302928E-3
1.830500E-7	4.330335E-3
1.831000E-7	4.292650E-3
1.831500E-7	4.241262E-3
1.832000E-7	4.213854E-3
1.832500E-7	4.196725E-3
1.833000E-7	4.183021E-3
1.833500E-7	4.203577E-3
1.834000E-7	4.261817E-3
1.834500E-7	4.333761E-3
1.835000E-7	4.395427E-3
1.835500E-7	4.457093E-3
1.836000E-7	4.518759E-3
1.836500E-7	4.576999E-3
1.837000E-7	4.580425E-3
1.837500E-7	4.546166E-3
1.838000E-7	4.532462E-3
1.838500E-7	4.518759E-3
1.839000E-7	4.453667E-3
1.839500E-7	4.371445E-3
1.840000E-7	4.350890E-3
1.840500E-7	4.357742E-3
1.841000E-7	4.337186E-3
1.841500E-7	4.323483E-3
1.842000E-7	4.374871E-3
1.842500E-7	4.443389E-3
1.843000E-7	4.484500E-3
1.843500E-7	4.515333E-3
1.844000E-7	4.573573E-3
1.844500E-7	4.635239E-3
1.845000E-7	4.645517E-3
1.845500E-7	4.635239E-3
1.846000E-7	4.645517E-3
1.846500E-7	4.669498E-3
1.847000E-7	4.655794E-3
1.847500E-7	4.642091E-3
1.848000E-7	4.645517E-3
1.848500E-7	4.624961E-3
1.849000E-7	4.563295E-3
1.849500E-7	4.508481E-3
1.850000E-7	4.494777E-3
1.850500E-7	4.511907E-3
1.851000E-7	4.532462E-3
1.851500E-7	4.566721E-3
1.852000E-7	4.604406E-3
1.852500E-7	4.648942E-3
1.853000E-7	4.672924E-3
1.853500E-7	4.696905E-3
1.854000E-7	4.755145E-3
1.854500E-7	4.820237E-3
1.855000E-7	4.816811E-3
1.855500E-7	4.761997E-3
1.856000E-7	4.731164E-3
1.856500E-7	4.683201E-3
1.857000E-7	4.566721E-3
1.857500E-7	4.433111E-3
1.858000E-7	4.354316E-3
1.858500E-7	4.296076E-3
1.859000E-7	4.234410E-3
1.859500E-7	4.224132E-3
1.860000E-7	4.285798E-3
1.860500E-7	4.357742E-3
1.861000E-7	4.422834E-3
1.861500E-7	4.532462E-3
1.862000E-7	4.662646E-3
1.862500E-7	4.744867E-3
1.863000E-7	4.761997E-3
1.863500E-7	4.738016E-3
1.864000E-7	4.669498E-3
1.864500E-7	4.539314E-3
1.865000E-7	4.381723E-3
1.865500E-7	4.230984E-3
1.866000E-7	4.093948E-3
1.866500E-7	3.980894E-3
1.867000E-7	3.878117E-3
1.867500E-7	3.802748E-3
1.868000E-7	3.819877E-3
1.868500E-7	3.915802E-3
1.869000E-7	4.001449E-3
1.869500E-7	4.080245E-3
1.870000E-7	4.230984E-3
1.870500E-7	4.405704E-3
1.871000E-7	4.467370E-3
1.871500E-7	4.450241E-3
1.872000E-7	4.453667E-3
1.872500E-7	4.443389E-3
1.873000E-7	4.357742E-3
1.873500E-7	4.258391E-3
1.874000E-7	4.207003E-3
1.874500E-7	4.183021E-3
1.875000E-7	4.179596E-3
1.875500E-7	4.234410E-3
1.876000E-7	4.361168E-3
1.876500E-7	4.518759E-3
1.877000E-7	4.662646E-3
1.877500E-7	4.792830E-3
1.878000E-7	4.933291E-3
1.878500E-7	5.066901E-3
1.879000E-7	5.125141E-3
1.879500E-7	5.108012E-3
1.880000E-7	5.056623E-3
1.880500E-7	4.988106E-3
1.881000E-7	4.878477E-3
1.881500E-7	4.765423E-3
1.882000E-7	4.690053E-3
1.882500E-7	4.618109E-3
1.883000E-7	4.525610E-3
1.883500E-7	4.491352E-3
1.884000E-7	4.546166E-3
1.884500E-7	4.618109E-3
1.885000E-7	4.642091E-3
1.885500E-7	4.676350E-3
1.886000E-7	4.748293E-3
1.886500E-7	4.803108E-3
1.887000E-7	4.844218E-3
1.887500E-7	4.868199E-3
1.888000E-7	4.861348E-3
1.888500E-7	4.827089E-3
1.889000E-7	4.792830E-3
1.889500E-7	4.748293E-3
1.890000E-7	4.686627E-3
1.890500E-7	4.638665E-3
1.891000E-7	4.604406E-3
1.891500E-7	4.563295E-3
1.892000E-7	4.539314E-3
1.892500E-7	4.532462E-3
1.893000E-7	4.505055E-3
1.893500E-7	4.491352E-3
1.894000E-7	4.549592E-3
1.894500E-7	4.635239E-3
1.895000E-7	4.707183E-3
1.895500E-7	4.765423E-3
1.896000E-7	4.823663E-3
1.896500E-7	4.875051E-3
1.897000E-7	4.909310E-3
1.897500E-7	4.912736E-3
1.898000E-7	4.885329E-3
1.898500E-7	4.861348E-3
1.899000E-7	4.830515E-3
1.899500E-7	4.792830E-3
1.900000E-7	4.782552E-3
1.900500E-7	4.755145E-3
1.901000E-7	4.662646E-3
1.901500E-7	4.580425E-3
1.902000E-7	4.570147E-3
1.902500E-7	4.535888E-3
1.903000E-7	4.453667E-3
1.903500E-7	4.415982E-3
1.904000E-7	4.422834E-3
1.904500E-7	4.392001E-3
1.905000E-7	4.364594E-3
1.905500E-7	4.378297E-3
1.906000E-7	4.402278E-3
1.906500E-7	4.422834E-3
1.907000E-7	4.439963E-3
1.907500E-7	4.463944E-3
1.908000E-7	4.525610E-3
1.908500E-7	4.618109E-3
1.909000E-7	4.666072E-3
1.909500E-7	4.659220E-3
1.910000E-7	4.662646E-3
1.910500E-7	4.652368E-3
1.911000E-7	4.573573E-3
1.911500E-7	4.467370E-3
1.912000E-7	4.361168E-3
1.912500E-7	4.207003E-3
1.913000E-7	4.028856E-3
1.913500E-7	3.915802E-3
1.914000E-7	3.867840E-3
1.914500E-7	3.816451E-3
1.915000E-7	3.799322E-3
1.915500E-7	3.843858E-3
1.916000E-7	3.915802E-3
1.916500E-7	3.994597E-3
1.917000E-7	4.093948E-3
1.917500E-7	4.213854E-3
1.918000E-7	4.333761E-3
1.918500E-7	4.439963E-3
1.919000E-7	4.511907E-3
1.919500E-7	4.556443E-3
1.920000E-7	4.573573E-3
1.920500E-7	4.542740E-3
1.921000E-7	4.474222E-3
1.921500E-7	4.429686E-3
1.922000E-7	4.426260E-3
1.922500E-7	4.422834E-3
1.923000E-7	4.412556E-3
1.923500E-7	4.439963E-3
1.924000E-7	4.494777E-3
1.924500E-7	4.532462E-3
1.925000E-7	4.539314E-3
1.925500E-7	4.525610E-3
1.926000E-7	4.529036E-3
1.926500E-7	4.556443E-3
1.927000E-7	4.570147E-3
1.927500E-7	4.563295E-3
1.928000E-7	4.580425E-3
1.928500E-7	4.604406E-3
1.929000E-7	4.566721E-3
1.929500E-7	4.518759E-3
1.930000E-7	4.525610E-3
1.930500E-7	4.529036E-3
1.931000E-7	4.467370E-3
1.931500E-7	4.415982E-3
1.932000E-7	4.419408E-3
1.932500E-7	4.402278E-3
1.933000E-7	4.354316E-3
1.933500E-7	4.309779E-3
1.934000E-7	4.292650E-3
1.934500E-7	4.296076E-3
1.935000E-7	4.330335E-3
1.935500E-7	4.371445E-3
1.936000E-7	4.419408E-3
1.936500E-7	4.484500E-3
1.937000E-7	4.549592E-3
1.937500E-7	4.580425E-3
1.938000E-7	4.614684E-3
1.938500E-7	4.642091E-3
1.939000E-7	4.607832E-3
1.939500E-7	4.542740E-3
1.940000E-7	4.487926E-3
1.940500E-7	4.415982E-3
1.941000E-7	4.313205E-3
1.941500E-7	4.217280E-3
1.942000E-7	4.138485E-3
1.942500E-7	4.080245E-3
1.943000E-7	4.052838E-3
1.943500E-7	4.066541E-3
1.944000E-7	4.131633E-3
1.944500E-7	4.224132E-3
1.945000E-7	4.302928E-3
1.945500E-7	4.381723E-3
1.946000E-7	4.518759E-3
1.946500E-7	4.652368E-3
1.947000E-7	4.696905E-3
1.947500E-7	4.696905E-3
1.948000E-7	4.710608E-3
1.948500E-7	4.690053E-3
1.949000E-7	4.590702E-3
1.949500E-7	4.481074E-3
1.950000E-7	4.392001E-3
1.950500E-7	4.306353E-3
1.951000E-7	4.241262E-3
1.951500E-7	4.203577E-3
1.952000E-7	4.183021E-3
1.952500E-7	4.186447E-3
1.953000E-7	4.213854E-3
1.953500E-7	4.244687E-3
1.954000E-7	4.289224E-3
1.954500E-7	4.354316E-3
1.955000E-7	4.388575E-3
1.955500E-7	4.378297E-3
1.956000E-7	4.371445E-3
1.956500E-7	4.371445E-3
1.957000E-7	4.354316E-3
1.957500E-7	4.326909E-3
1.958000E-7	4.320057E-3
1.958500E-7	4.323483E-3
1.959000E-7	4.323483E-3
1.959500E-7	4.350890E-3
1.960000E-7	4.398852E-3
1.960500E-7	4.460519E-3
1.961000E-7	4.508481E-3
1.961500E-7	4.563295E-3
1.962000E-7	4.635239E-3
1.962500E-7	4.700331E-3
1.963000E-7	4.741442E-3
1.963500E-7	4.761997E-3
1.964000E-7	4.799682E-3
1.964500E-7	4.854496E-3
1.965000E-7	4.895607E-3
1.965500E-7	4.916162E-3
1.966000E-7	4.926440E-3
1.966500E-7	4.946995E-3
1.967000E-7	4.974402E-3
1.967500E-7	4.998383E-3
1.968000E-7	5.060049E-3
1.968500E-7	5.108012E-3
1.969000E-7	5.097734E-3
1.969500E-7	5.056623E-3
1.970000E-7	5.063475E-3
1.970500E-7	5.077179E-3
1.971000E-7	5.036068E-3
1.971500E-7	4.994957E-3
1.972000E-7	5.005235E-3
1.972500E-7	5.018939E-3
1.973000E-7	5.025790E-3
1.973500E-7	5.053198E-3
1.974000E-7	5.104586E-3
1.974500E-7	5.128567E-3
1.975000E-7	5.125141E-3
1.975500E-7	5.114864E-3
1.976000E-7	5.121715E-3
1.976500E-7	5.090882E-3
1.977000E-7	5.005235E-3
1.977500E-7	4.895607E-3
1.978000E-7	4.799682E-3
1.978500E-7	4.703757E-3
1.979000E-7	4.583851E-3
1.979500E-7	4.470796E-3
1.980000E-7	4.388575E-3
1.980500E-7	4.340612E-3
1.981000E-7	4.306353E-3
1.981500E-7	4.275520E-3
1.982000E-7	4.275520E-3
1.982500E-7	4.309779E-3
1.983000E-7	4.347464E-3
1.983500E-7	4.374871E-3
1.984000E-7	4.419408E-3
1.984500E-7	4.460519E-3
1.985000E-7	4.463944E-3
1.985500E-7	4.457093E-3
1.986000E-7	4.463944E-3
1.986500E-7	4.450241E-3
1.987000E-7	4.419408E-3
1.987500E-7	4.385149E-3
1.988000E-7	4.361168E-3
1.988500E-7	4.344038E-3
1.989000E-7	4.330335E-3
1.989500E-7	4.289224E-3
1.990000E-7	4.254965E-3
1.990500E-7	4.261817E-3
1.991000E-7	4.265243E-3
1.991500E-7	4.251539E-3
1.992000E-7	4.289224E-3
1.992500E-7	4.357742E-3
1.993000E-7	4.368019E-3
1.993500E-7	4.357742E-3
1.994000E-7	4.422834E-3
1.994500E-7	4.529036E-3
1.995000E-7	4.594128E-3
1.995500E-7	4.645517E-3
1.996000E-7	4.724312E-3
1.996500E-7	4.775700E-3
1.997000E-7	4.779126E-3
1.997500E-7	4.758571E-3
1.998000E-7	4.724312E-3
1.998500E-7	4.655794E-3
1.999000E-7	4.566721E-3
1.999500E-7	4.453667E-3
2.000000E-7	4.340612E-3
