Study Name	Tungsten_Calibration
Sample Name	2024-02-22
Run Name	spot01
Operator	Angus+Elena
Date	2/22/2024
Time	11:08
Sign	FIX
Grating Spacing	03.40um
Channel	3
Number Traces	10000
Files in Batch	1
Batch Number	1
dt	50.000001E-12
time stamp (ms)	11:08:53 AM
	
Time	Amplitude
0.000000E+0	5.436897E-3
5.000000E-11	5.385509E-3
1.000000E-10	5.368379E-3
1.500000E-10	5.388935E-3
2.000000E-10	5.436897E-3
2.500000E-10	5.495137E-3
3.000000E-10	5.546526E-3
3.500000E-10	5.573933E-3
4.000000E-10	5.577359E-3
4.500000E-10	5.556803E-3
5.000000E-10	5.508841E-3
5.500000E-10	5.412916E-3
6.000000E-10	5.272454E-3
6.500000E-10	5.131993E-3
7.000000E-10	5.012087E-3
7.500000E-10	4.885329E-3
8.000000E-10	4.792830E-3
8.500000E-10	4.775700E-3
9.000000E-10	4.799682E-3
9.500000E-10	4.833941E-3
1.000000E-9	4.929865E-3
1.050000E-9	5.090882E-3
1.100000E-9	5.248473E-3
1.150000E-9	5.388935E-3
1.200000E-9	5.553377E-3
1.250000E-9	5.724672E-3
1.300000E-9	5.858282E-3
1.350000E-9	5.940503E-3
1.400000E-9	6.009021E-3
1.450000E-9	6.056983E-3
1.500000E-9	6.101520E-3
1.550000E-9	6.142631E-3
1.600000E-9	6.180315E-3
1.650000E-9	6.204297E-3
1.700000E-9	6.218000E-3
1.750000E-9	6.211148E-3
1.800000E-9	6.183741E-3
1.850000E-9	6.187167E-3
1.900000E-9	6.200871E-3
1.950000E-9	6.183741E-3
2.000000E-9	6.156334E-3
2.050000E-9	6.146056E-3
2.100000E-9	6.115223E-3
2.150000E-9	6.053557E-3
2.200000E-9	6.019299E-3
2.250000E-9	5.995317E-3
2.300000E-9	5.930225E-3
2.350000E-9	5.854856E-3
2.400000E-9	5.813745E-3
2.450000E-9	5.762357E-3
2.500000E-9	5.676710E-3
2.550000E-9	5.584210E-3
2.600000E-9	5.508841E-3
2.650000E-9	5.430045E-3
2.700000E-9	5.344398E-3
2.750000E-9	5.255325E-3
2.800000E-9	5.169678E-3
2.850000E-9	5.125141E-3
2.900000E-9	5.118289E-3
2.950000E-9	5.135419E-3
3.000000E-9	5.169678E-3
3.050000E-9	5.227918E-3
3.100000E-9	5.286158E-3
3.150000E-9	5.351250E-3
3.200000E-9	5.447175E-3
3.250000E-9	5.522544E-3
3.300000E-9	5.532822E-3
3.350000E-9	5.525970E-3
3.400000E-9	5.560229E-3
3.450000E-9	5.567081E-3
3.500000E-9	5.519119E-3
3.550000E-9	5.464304E-3
3.600000E-9	5.443749E-3
3.650000E-9	5.436897E-3
3.700000E-9	5.443749E-3
3.750000E-9	5.450601E-3
3.800000E-9	5.447175E-3
3.850000E-9	5.495137E-3
3.900000E-9	5.611618E-3
3.950000E-9	5.721246E-3
4.000000E-9	5.806893E-3
4.050000E-9	5.909670E-3
4.100000E-9	6.012447E-3
4.150000E-9	6.087816E-3
4.200000E-9	6.170038E-3
4.250000E-9	6.259111E-3
4.300000E-9	6.296796E-3
4.350000E-9	6.300222E-3
4.400000E-9	6.296796E-3
4.450000E-9	6.245407E-3
4.500000E-9	6.156334E-3
4.550000E-9	6.070687E-3
4.600000E-9	5.988466E-3
4.650000E-9	5.889115E-3
4.700000E-9	5.793190E-3
4.750000E-9	5.728098E-3
4.800000E-9	5.700691E-3
4.850000E-9	5.741801E-3
4.900000E-9	5.796616E-3
4.950000E-9	5.824023E-3
5.000000E-9	5.865133E-3
5.050000E-9	5.957632E-3
5.100000E-9	6.009021E-3
5.150000E-9	6.009021E-3
5.200000E-9	6.015873E-3
5.250000E-9	6.026150E-3
5.300000E-9	5.991891E-3
5.350000E-9	5.906244E-3
5.400000E-9	5.824023E-3
5.450000E-9	5.789764E-3
5.500000E-9	5.810319E-3
5.550000E-9	5.865133E-3
5.600000E-9	6.043280E-3
5.650000E-9	6.485220E-3
5.700000E-9	7.238915E-3
5.750000E-9	8.318071E-3
5.800000E-9	9.842592E-3
5.850000E-9	1.195294E-2
5.900000E-9	1.463541E-2
5.950000E-9	1.787630E-2
6.000000E-9	2.170302E-2
6.050000E-9	2.609159E-2
6.100000E-9	3.094265E-2
6.150000E-9	3.613287E-2
6.200000E-9	4.151495E-2
6.250000E-9	4.693470E-2
6.300000E-9	5.225511E-2
6.350000E-9	5.732543E-2
6.400000E-9	6.201205E-2
6.450000E-9	6.617108E-2
6.500000E-9	6.968604E-2
6.550000E-9	7.249870E-2
6.600000E-9	7.456793E-2
6.650000E-9	7.587320E-2
6.700000E-9	7.639393E-2
6.750000E-9	7.611301E-2
6.800000E-9	7.504071E-2
6.850000E-9	7.324554E-2
6.900000E-9	7.081316E-2
6.950000E-9	6.777782E-2
7.000000E-9	6.425943E-2
7.050000E-9	6.049095E-2
7.100000E-9	5.657858E-2
7.150000E-9	5.259427E-2
7.200000E-9	4.877441E-2
7.250000E-9	4.533824E-2
7.300000E-9	4.232346E-2
7.350000E-9	3.980543E-2
7.400000E-9	3.797600E-2
7.450000E-9	3.686944E-2
7.500000E-9	3.636241E-2
7.550000E-9	3.643778E-2
7.600000E-9	3.711953E-2
7.650000E-9	3.827748E-2
7.700000E-9	3.973006E-2
7.750000E-9	4.139504E-2
7.800000E-9	4.317993E-2
7.850000E-9	4.495111E-2
7.900000E-9	4.657156E-2
7.950000E-9	4.791451E-2
8.000000E-9	4.888404E-2
8.050000E-9	4.940477E-2
8.100000E-9	4.942875E-2
8.150000E-9	4.890802E-2
8.200000E-9	4.784599E-2
8.250000E-9	4.625980E-2
8.300000E-9	4.418371E-2
8.350000E-9	4.169994E-2
8.400000E-9	3.893525E-2
8.450000E-9	3.601982E-2
8.500000E-9	3.305642E-2
8.550000E-9	3.020608E-2
8.600000E-9	2.766750E-2
8.650000E-9	2.554002E-2
8.700000E-9	2.389559E-2
8.750000E-9	2.283357E-2
8.800000E-9	2.241218E-2
8.850000E-9	2.258348E-2
8.900000E-9	2.332004E-2
8.950000E-9	2.459105E-2
9.000000E-9	2.628344E-2
9.050000E-9	2.824990E-2
9.100000E-9	3.038080E-2
9.150000E-9	3.254254E-2
9.200000E-9	3.456724E-2
9.250000E-9	3.634870E-2
9.300000E-9	3.781156E-2
9.350000E-9	3.884275E-2
9.400000E-9	3.938404E-2
9.450000E-9	3.938062E-2
9.500000E-9	3.880164E-2
9.550000E-9	3.765054E-2
9.600000E-9	3.600611E-2
9.650000E-9	3.392317E-2
9.700000E-9	3.145996E-2
9.750000E-9	2.870897E-2
9.800000E-9	2.585520E-2
9.850000E-9	2.305968E-2
9.900000E-9	2.041831E-2
9.950000E-9	1.808186E-2
1.000000E-8	1.622845E-2
1.005000E-8	1.494032E-2
1.010000E-8	1.422431E-2
1.015000E-8	1.412838E-2
1.020000E-8	1.468337E-2
1.025000E-8	1.582077E-2
1.030000E-8	1.746177E-2
1.035000E-8	1.951388E-2
1.040000E-8	2.180237E-2
1.045000E-8	2.416281E-2
1.050000E-8	2.650270E-2
1.055000E-8	2.867128E-2
1.060000E-8	3.050414E-2
1.065000E-8	3.192931E-2
1.070000E-8	3.289883E-2
1.075000E-8	3.332364E-2
1.080000E-8	3.316263E-2
1.085000E-8	3.245004E-2
1.090000E-8	3.120987E-2
1.095000E-8	2.948665E-2
1.100000E-8	2.737630E-2
1.105000E-8	2.495077E-2
1.110000E-8	2.230598E-2
1.115000E-8	1.961666E-2
1.120000E-8	1.702326E-2
1.125000E-8	1.461828E-2
1.130000E-8	1.252849E-2
1.135000E-8	1.091147E-2
1.140000E-8	9.842592E-3
1.145000E-8	9.352690E-3
1.150000E-8	9.489725E-3
1.155000E-8	1.027083E-2
1.160000E-8	1.161378E-2
1.165000E-8	1.344663E-2
1.170000E-8	1.567346E-2
1.175000E-8	1.813667E-2
1.180000E-8	2.069239E-2
1.185000E-8	2.318986E-2
1.190000E-8	2.542697E-2
1.195000E-8	2.726324E-2
1.200000E-8	2.861304E-2
1.205000E-8	2.939415E-2
1.210000E-8	2.951405E-2
1.215000E-8	2.895906E-2
1.220000E-8	2.777713E-2
1.225000E-8	2.602650E-2
1.230000E-8	2.380652E-2
1.235000E-8	2.123710E-2
1.240000E-8	1.844158E-2
1.245000E-8	1.560151E-2
1.250000E-8	1.293617E-2
1.255000E-8	1.056545E-2
1.260000E-8	8.564735E-3
1.265000E-8	7.071047E-3
1.270000E-8	6.170038E-3
1.275000E-8	5.848004E-3
1.280000E-8	6.135779E-3
1.285000E-8	7.043640E-3
1.290000E-8	8.441403E-3
1.295000E-8	1.022629E-2
1.300000E-8	1.235034E-2
1.305000E-8	1.465597E-2
1.310000E-8	1.693418E-2
1.315000E-8	1.910277E-2
1.320000E-8	2.110007E-2
1.325000E-8	2.276162E-2
1.330000E-8	2.400180E-2
1.335000E-8	2.477947E-2
1.340000E-8	2.502271E-2
1.345000E-8	2.471781E-2
1.350000E-8	2.391272E-2
1.355000E-8	2.261431E-2
1.360000E-8	2.086368E-2
1.365000E-8	1.878074E-2
1.370000E-8	1.646141E-2
1.375000E-8	1.396736E-2
1.380000E-8	1.143906E-2
1.385000E-8	9.030656E-3
1.390000E-8	6.814105E-3
1.395000E-8	4.885329E-3
1.400000E-8	3.401918E-3
1.405000E-8	2.435817E-3
1.410000E-8	2.004155E-3
1.415000E-8	2.175450E-3
1.420000E-8	2.990812E-3
1.425000E-8	4.350890E-3
1.430000E-8	6.163186E-3
1.435000E-8	8.352330E-3
1.440000E-8	1.079842E-2
1.445000E-8	1.335756E-2
1.450000E-8	1.588586E-2
1.455000E-8	1.817436E-2
1.460000E-8	2.005860E-2
1.465000E-8	2.148719E-2
1.470000E-8	2.236765E-2
1.475000E-8	2.258690E-2
1.480000E-8	2.214154E-2
1.485000E-8	2.108979E-2
1.490000E-8	1.944194E-2
1.495000E-8	1.726650E-2
1.500000E-8	1.474504E-2
1.505000E-8	1.203174E-2
1.510000E-8	9.239635E-3
1.515000E-8	6.536608E-3
1.520000E-8	4.111078E-3
1.525000E-8	2.089803E-3
1.530000E-8	5.515779E-4
1.535000E-8	-4.213749E-4
1.540000E-8	-7.742416E-4
1.545000E-8	-4.761891E-4
1.550000E-8	4.316718E-4
1.555000E-8	1.887675E-3
1.560000E-8	3.813025E-3
1.565000E-8	6.094668E-3
1.570000E-8	8.564735E-3
1.575000E-8	1.105878E-2
1.580000E-8	1.346376E-2
1.585000E-8	1.562549E-2
1.590000E-8	1.739668E-2
1.595000E-8	1.868139E-2
1.600000E-8	1.943851E-2
1.605000E-8	1.959953E-2
1.610000E-8	1.916444E-2
1.615000E-8	1.816065E-2
1.620000E-8	1.663271E-2
1.625000E-8	1.465597E-2
1.630000E-8	1.236747E-2
1.635000E-8	9.883703E-3
1.640000E-8	7.324563E-3
1.645000E-8	4.871625E-3
1.650000E-8	2.651649E-3
1.655000E-8	7.571313E-4
1.660000E-8	-7.022979E-4
1.665000E-8	-1.610159E-3
1.670000E-8	-1.980155E-3
1.675000E-8	-1.825990E-3
1.680000E-8	-1.103127E-3
1.685000E-8	1.884336E-4
1.690000E-8	1.915082E-3
1.695000E-8	3.939783E-3
1.700000E-8	6.152908E-3
1.705000E-8	8.458532E-3
1.710000E-8	1.070592E-2
1.715000E-8	1.276488E-2
1.720000E-8	1.454976E-2
1.725000E-8	1.597494E-2
1.730000E-8	1.696502E-2
1.735000E-8	1.744807E-2
1.740000E-8	1.740696E-2
1.745000E-8	1.685881E-2
1.750000E-8	1.580364E-2
1.755000E-8	1.430653E-2
1.760000E-8	1.245312E-2
1.765000E-8	1.034620E-2
1.770000E-8	8.044000E-3
1.775000E-8	5.673284E-3
1.780000E-8	3.415622E-3
1.785000E-8	1.380643E-3
1.790000E-8	-3.562830E-4
1.795000E-8	-1.709510E-3
1.800000E-8	-2.569408E-3
1.805000E-8	-2.874312E-3
1.810000E-8	-2.600241E-3
1.815000E-8	-1.767750E-3
1.820000E-8	-4.350784E-4
1.825000E-8	1.360088E-3
1.830000E-8	3.511547E-3
1.835000E-8	5.871985E-3
1.840000E-8	8.290664E-3
1.845000E-8	1.065453E-2
1.850000E-8	1.282312E-2
1.855000E-8	1.463199E-2
1.860000E-8	1.596466E-2
1.865000E-8	1.675946E-2
1.870000E-8	1.696844E-2
1.875000E-8	1.655734E-2
1.880000E-8	1.555012E-2
1.885000E-8	1.403246E-2
1.890000E-8	1.210368E-2
1.895000E-8	9.876851E-3
1.900000E-8	7.499283E-3
1.905000E-8	5.104586E-3
1.910000E-8	2.833221E-3
1.915000E-8	7.982420E-4
1.920000E-8	-8.701665E-4
1.925000E-8	-2.079506E-3
1.930000E-8	-2.764684E-3
1.935000E-8	-2.908571E-3
1.940000E-8	-2.524871E-3
1.945000E-8	-1.634140E-3
1.950000E-8	-3.014687E-4
1.955000E-8	1.408050E-3
1.960000E-8	3.419048E-3
1.965000E-8	5.597914E-3
1.970000E-8	7.821317E-3
1.975000E-8	9.983053E-3
1.980000E-8	1.198377E-2
1.985000E-8	1.370014E-2
1.990000E-8	1.504652E-2
1.995000E-8	1.595095E-2
2.000000E-8	1.635863E-2
2.005000E-8	1.627299E-2
2.010000E-8	1.567688E-2
2.015000E-8	1.457717E-2
2.020000E-8	1.305608E-2
2.025000E-8	1.121637E-2
2.030000E-8	9.123155E-3
2.035000E-8	6.875771E-3
2.040000E-8	4.642091E-3
2.045000E-8	2.528317E-3
2.050000E-8	6.029663E-4
2.055000E-8	-1.003776E-3
2.060000E-8	-2.172005E-3
2.065000E-8	-2.860609E-3
2.070000E-8	-3.025051E-3
2.075000E-8	-2.620796E-3
2.080000E-8	-1.682102E-3
2.085000E-8	-2.877652E-4
2.090000E-8	1.507401E-3
2.095000E-8	3.617750E-3
2.100000E-8	5.895966E-3
2.105000E-8	8.225572E-3
2.110000E-8	1.048323E-2
2.115000E-8	1.251136E-2
2.120000E-8	1.418319E-2
2.125000E-8	1.543364E-2
2.130000E-8	1.618049E-2
2.135000E-8	1.635178E-2
2.140000E-8	1.597494E-2
2.145000E-8	1.510476E-2
2.150000E-8	1.374811E-2
2.155000E-8	1.197692E-2
2.160000E-8	9.955646E-3
2.165000E-8	7.797335E-3
2.170000E-8	5.560229E-3
2.175000E-8	3.412196E-3
2.180000E-8	1.500549E-3
2.185000E-8	-8.906353E-5
2.190000E-8	-1.291551E-3
2.195000E-8	-2.014414E-3
2.200000E-8	-2.247374E-3
2.205000E-8	-1.990433E-3
2.210000E-8	-1.219607E-3
2.215000E-8	3.435502E-6
2.220000E-8	1.545086E-3
2.225000E-8	3.347104E-3
2.230000E-8	5.358102E-3
2.235000E-8	7.454746E-3
2.240000E-8	9.506855E-3
2.245000E-8	1.138767E-2
2.250000E-8	1.297043E-2
2.255000E-8	1.423116E-2
2.260000E-8	1.513559E-2
2.265000E-8	1.555012E-2
2.270000E-8	1.540281E-2
2.275000E-8	1.479643E-2
2.280000E-8	1.379607E-2
2.285000E-8	1.238118E-2
2.290000E-8	1.062369E-2
2.295000E-8	8.681215E-3
2.300000E-8	6.629107E-3
2.305000E-8	4.566721E-3
2.310000E-8	2.644797E-3
2.315000E-8	9.592588E-4
2.320000E-8	-4.248008E-4
2.325000E-8	-1.401179E-3
2.330000E-8	-1.932192E-3
2.335000E-8	-2.010988E-3
2.340000E-8	-1.620436E-3
2.345000E-8	-7.708157E-4
2.350000E-8	4.556530E-4
2.355000E-8	1.973322E-3
2.360000E-8	3.723952E-3
2.365000E-8	5.611618E-3
2.370000E-8	7.526690E-3
2.375000E-8	9.359541E-3
2.380000E-8	1.103138E-2
2.385000E-8	1.242914E-2
2.390000E-8	1.347404E-2
2.395000E-8	1.411125E-2
2.400000E-8	1.426884E-2
2.405000E-8	1.397079E-2
2.410000E-8	1.323080E-2
2.415000E-8	1.206257E-2
2.420000E-8	1.049351E-2
2.425000E-8	8.664086E-3
2.430000E-8	6.690773E-3
2.435000E-8	4.645517E-3
2.440000E-8	2.651649E-3
2.445000E-8	8.462045E-4
2.450000E-8	-6.920202E-4
2.455000E-8	-1.856823E-3
2.460000E-8	-2.559130E-3
2.465000E-8	-2.778387E-3
2.470000E-8	-2.555704E-3
2.475000E-8	-1.877378E-3
2.480000E-8	-7.399826E-4
2.485000E-8	7.674090E-4
2.490000E-8	2.531742E-3
2.495000E-8	4.446815E-3
2.500000E-8	6.416702E-3
2.505000E-8	8.338626E-3
2.510000E-8	1.007213E-2
2.515000E-8	1.152128E-2
2.520000E-8	1.264840E-2
2.525000E-8	1.337126E-2
2.530000E-8	1.359052E-2
2.535000E-8	1.330274E-2
2.540000E-8	1.260043E-2
2.545000E-8	1.149045E-2
2.550000E-8	9.979627E-3
2.555000E-8	8.218720E-3
2.560000E-8	6.334480E-3
2.565000E-8	4.395427E-3
2.570000E-8	2.494058E-3
2.575000E-8	7.845384E-4
2.580000E-8	-6.714648E-4
2.585000E-8	-1.822564E-3
2.590000E-8	-2.576260E-3
2.595000E-8	-2.891442E-3
2.600000E-8	-2.788665E-3
2.605000E-8	-2.264504E-3
2.610000E-8	-1.360069E-3
2.615000E-8	-1.610072E-4
2.620000E-8	1.271015E-3
2.625000E-8	2.894887E-3
2.630000E-8	4.607832E-3
2.635000E-8	6.286518E-3
2.640000E-8	7.876131E-3
2.645000E-8	9.315005E-3
2.650000E-8	1.051749E-2
2.655000E-8	1.140480E-2
2.660000E-8	1.193238E-2
2.665000E-8	1.206599E-2
2.670000E-8	1.179535E-2
2.675000E-8	1.115813E-2
2.680000E-8	1.017490E-2
2.685000E-8	8.866213E-3
2.690000E-8	7.307433E-3
2.695000E-8	5.608192E-3
2.700000E-8	3.864414E-3
2.705000E-8	2.161746E-3
2.710000E-8	5.926886E-4
2.715000E-8	-7.160014E-4
2.720000E-8	-1.661547E-3
2.725000E-8	-2.202838E-3
2.730000E-8	-2.363855E-3
2.735000E-8	-2.117190E-3
2.740000E-8	-1.428587E-3
2.745000E-8	-3.699865E-4
2.750000E-8	9.489812E-4
2.755000E-8	2.473502E-3
2.760000E-8	4.128207E-3
2.765000E-8	5.796616E-3
2.770000E-8	7.358822E-3
2.775000E-8	8.749733E-3
2.780000E-8	9.928239E-3
2.785000E-8	1.082240E-2
2.790000E-8	1.136026E-2
2.795000E-8	1.152470E-2
2.800000E-8	1.134313E-2
2.805000E-8	1.083953E-2
2.810000E-8	1.000018E-2
2.815000E-8	8.852510E-3
2.820000E-8	7.489005E-3
2.825000E-8	5.988466E-3
2.830000E-8	4.402278E-3
2.835000E-8	2.809239E-3
2.840000E-8	1.339533E-3
2.845000E-8	5.824974E-5
2.850000E-8	-9.900726E-4
2.855000E-8	-1.702658E-3
2.860000E-8	-2.004136E-3
2.865000E-8	-1.894508E-3
2.870000E-8	-1.387476E-3
2.875000E-8	-4.659114E-4
2.880000E-8	7.948161E-4
2.885000E-8	2.278227E-3
2.890000E-8	3.926080E-3
2.895000E-8	5.673284E-3
2.900000E-8	7.389655E-3
2.905000E-8	8.941583E-3
2.910000E-8	1.028111E-2
2.915000E-8	1.132943E-2
2.920000E-8	1.202146E-2
2.925000E-8	1.232636E-2
2.930000E-8	1.222016E-2
2.935000E-8	1.170970E-2
2.940000E-8	1.085323E-2
2.945000E-8	9.729537E-3
2.950000E-8	8.342052E-3
2.955000E-8	6.762717E-3
2.960000E-8	5.135419E-3
2.965000E-8	3.521825E-3
2.970000E-8	1.949341E-3
2.975000E-8	5.310226E-4
2.980000E-8	-5.789658E-4
2.985000E-8	-1.370346E-3
2.990000E-8	-1.863675E-3
2.995000E-8	-1.990433E-3
3.000000E-8	-1.685528E-3
3.005000E-8	-1.003776E-3
3.010000E-8	-4.795285E-5
3.015000E-8	1.168238E-3
3.020000E-8	2.631093E-3
3.025000E-8	4.217280E-3
3.030000E-8	5.800042E-3
3.035000E-8	7.345118E-3
3.040000E-8	8.780566E-3
3.045000E-8	1.000018E-2
3.050000E-8	1.092860E-2
3.055000E-8	1.154183E-2
3.060000E-8	1.179535E-2
3.065000E-8	1.169942E-2
3.070000E-8	1.124721E-2
3.075000E-8	1.043527E-2
3.080000E-8	9.311579E-3
3.085000E-8	7.972056E-3
3.090000E-8	6.444109E-3
3.095000E-8	4.768849E-3
3.100000E-8	3.097014E-3
3.105000E-8	1.562215E-3
3.110000E-8	1.747300E-4
3.115000E-8	-9.832208E-4
3.120000E-8	-1.767750E-3
3.125000E-8	-2.137746E-3
3.130000E-8	-2.148023E-3
3.135000E-8	-1.774601E-3
3.140000E-8	-9.866467E-4
3.145000E-8	1.576006E-4
3.150000E-8	1.541660E-3
3.155000E-8	3.097014E-3
3.160000E-8	4.772275E-3
3.165000E-8	6.447535E-3
3.170000E-8	7.978908E-3
3.175000E-8	9.273894E-3
3.180000E-8	1.031536E-2
3.185000E-8	1.106906E-2
3.190000E-8	1.144248E-2
3.195000E-8	1.138082E-2
3.200000E-8	1.093202E-2
3.205000E-8	1.015435E-2
3.210000E-8	9.044359E-3
3.215000E-8	7.667152E-3
3.220000E-8	6.163186E-3
3.225000E-8	4.618109E-3
3.230000E-8	3.049052E-3
3.235000E-8	1.558790E-3
3.240000E-8	3.117656E-4
3.245000E-8	-6.680390E-4
3.250000E-8	-1.380624E-3
3.255000E-8	-1.733491E-3
3.260000E-8	-1.664973E-3
3.265000E-8	-1.250440E-3
3.270000E-8	-5.344292E-4
3.275000E-8	4.899119E-4
3.280000E-8	1.774621E-3
3.285000E-8	3.196365E-3
3.290000E-8	4.690053E-3
3.295000E-8	6.187167E-3
3.300000E-8	7.602060E-3
3.305000E-8	8.842232E-3
3.310000E-8	9.846018E-3
3.315000E-8	1.054490E-2
3.320000E-8	1.092517E-2
3.325000E-8	1.100739E-2
3.330000E-8	1.076758E-2
3.335000E-8	1.018861E-2
3.340000E-8	9.318431E-3
3.345000E-8	8.239275E-3
3.350000E-8	6.995677E-3
3.355000E-8	5.635599E-3
3.360000E-8	4.248113E-3
3.365000E-8	2.908590E-3
3.370000E-8	1.695825E-3
3.375000E-8	6.646323E-4
3.380000E-8	-1.438778E-4
3.385000E-8	-6.543354E-4
3.390000E-8	-8.290558E-4
3.395000E-8	-7.022979E-4
3.400000E-8	-2.740616E-4
3.405000E-8	4.659307E-4
3.410000E-8	1.483420E-3
3.415000E-8	2.689333E-3
3.420000E-8	4.028856E-3
3.425000E-8	5.457453E-3
3.430000E-8	6.851790E-3
3.435000E-8	8.139924E-3
3.440000E-8	9.267042E-3
3.445000E-8	1.016120E-2
3.450000E-8	1.073332E-2
3.455000E-8	1.095601E-2
3.460000E-8	1.085323E-2
3.465000E-8	1.042157E-2
3.470000E-8	9.664446E-3
3.475000E-8	8.646956E-3
3.480000E-8	7.434191E-3
3.485000E-8	6.091242E-3
3.490000E-8	4.696905E-3
3.495000E-8	3.305994E-3
3.500000E-8	2.021285E-3
3.505000E-8	9.284258E-4
3.510000E-8	7.195330E-5
3.515000E-8	-5.344292E-4
3.520000E-8	-8.153522E-4
3.525000E-8	-7.365568E-4
3.530000E-8	-3.562830E-4
3.535000E-8	2.603773E-4
3.540000E-8	1.137405E-3
3.545000E-8	2.233690E-3
3.550000E-8	3.463585E-3
3.555000E-8	4.748293E-3
3.560000E-8	6.029576E-3
3.565000E-8	7.211508E-3
3.570000E-8	8.239275E-3
3.575000E-8	9.099174E-3
3.580000E-8	9.726112E-3
3.585000E-8	1.003787E-2
3.590000E-8	1.004129E-2
3.595000E-8	9.760371E-3
3.600000E-8	9.208802E-3
3.605000E-8	8.420847E-3
3.610000E-8	7.434191E-3
3.615000E-8	6.293370E-3
3.620000E-8	5.084031E-3
3.625000E-8	3.895247E-3
3.630000E-8	2.740722E-3
3.635000E-8	1.675270E-3
3.640000E-8	8.153715E-4
3.645000E-8	2.021371E-4
3.650000E-8	-1.849885E-4
3.655000E-8	-3.014687E-4
3.660000E-8	-8.563764E-5
3.665000E-8	4.008388E-4
3.670000E-8	1.086017E-3
3.675000E-8	1.945915E-3
3.680000E-8	2.935997E-3
3.685000E-8	4.018579E-3
3.690000E-8	5.125141E-3
3.695000E-8	6.166612E-3
3.700000E-8	7.095028E-3
3.705000E-8	7.900112E-3
3.710000E-8	8.499643E-3
3.715000E-8	8.828528E-3
3.720000E-8	8.910750E-3
3.725000E-8	8.773714E-3
3.730000E-8	8.386589E-3
3.735000E-8	7.739095E-3
3.740000E-8	6.872345E-3
3.745000E-8	5.851430E-3
3.750000E-8	4.748293E-3
3.755000E-8	3.597194E-3
3.760000E-8	2.449521E-3
3.765000E-8	1.397773E-3
3.770000E-8	5.070413E-4
3.775000E-8	-1.986920E-4
3.780000E-8	-6.543354E-4
3.785000E-8	-8.222040E-4
3.790000E-8	-7.228532E-4
3.795000E-8	-3.734124E-4
3.800000E-8	2.466737E-4
3.805000E-8	1.082591E-3
3.810000E-8	2.069247E-3
3.815000E-8	3.165532E-3
3.820000E-8	4.320057E-3
3.825000E-8	5.450601E-3
3.830000E-8	6.512627E-3
3.835000E-8	7.444469E-3
3.840000E-8	8.153628E-3
3.845000E-8	8.643530E-3
3.850000E-8	8.907324E-3
3.855000E-8	8.883343E-3
3.860000E-8	8.581864E-3
3.865000E-8	8.061129E-3
3.870000E-8	7.297156E-3
3.875000E-8	6.303647E-3
3.880000E-8	5.210788E-3
3.885000E-8	4.093948E-3
3.890000E-8	2.966830E-3
3.895000E-8	1.911656E-3
3.900000E-8	1.044906E-3
3.905000E-8	3.905611E-4
3.910000E-8	-6.508230E-5
3.915000E-8	-2.706357E-4
3.920000E-8	-1.815626E-4
3.925000E-8	1.747300E-4
3.930000E-8	7.502795E-4
3.935000E-8	1.483420E-3
3.940000E-8	2.350170E-3
3.945000E-8	3.323123E-3
3.950000E-8	4.337186E-3
3.955000E-8	5.327269E-3
3.960000E-8	6.255685E-3
3.965000E-8	7.077899E-3
3.970000E-8	7.763077E-3
3.975000E-8	8.276960E-3
3.980000E-8	8.581864E-3
3.985000E-8	8.660660E-3
3.990000E-8	8.513347E-3
3.995000E-8	8.167332E-3
4.000000E-8	7.632893E-3
4.005000E-8	6.937437E-3
4.010000E-8	6.125501E-3
4.015000E-8	5.203937E-3
4.020000E-8	4.234410E-3
4.025000E-8	3.312845E-3
4.030000E-8	2.466650E-3
4.035000E-8	1.726658E-3
4.040000E-8	1.171664E-3
4.045000E-8	8.599080E-4
4.050000E-8	7.742608E-4
4.055000E-8	8.838893E-4
4.060000E-8	1.240182E-3
4.065000E-8	1.808880E-3
4.070000E-8	2.497483E-3
4.075000E-8	3.268309E-3
4.080000E-8	4.148763E-3
4.085000E-8	5.053198E-3
4.090000E-8	5.882263E-3
4.095000E-8	6.618829E-3
4.100000E-8	7.228638E-3
4.105000E-8	7.656874E-3
4.110000E-8	7.865853E-3
4.115000E-8	7.865853E-3
4.120000E-8	7.646596E-3
4.125000E-8	7.242341E-3
4.130000E-8	6.673644E-3
4.135000E-8	5.940503E-3
4.140000E-8	5.097734E-3
4.145000E-8	4.220706E-3
4.150000E-8	3.350530E-3
4.155000E-8	2.531742E-3
4.160000E-8	1.829435E-3
4.165000E-8	1.281293E-3
4.170000E-8	8.736116E-4
4.175000E-8	6.166698E-4
4.180000E-8	5.618556E-4
4.185000E-8	6.851876E-4
4.190000E-8	9.729624E-4
4.195000E-8	1.414902E-3
4.200000E-8	1.983600E-3
4.205000E-8	2.641371E-3
4.210000E-8	3.367660E-3
4.215000E-8	4.135059E-3
4.220000E-8	4.899032E-3
4.225000E-8	5.635599E-3
4.230000E-8	6.307073E-3
4.235000E-8	6.879197E-3
4.240000E-8	7.327989E-3
4.245000E-8	7.626041E-3
4.250000E-8	7.732244E-3
4.255000E-8	7.643170E-3
4.260000E-8	7.393080E-3
4.265000E-8	6.978548E-3
4.270000E-8	6.413276E-3
4.275000E-8	5.734950E-3
4.280000E-8	4.970976E-3
4.285000E-8	4.159040E-3
4.290000E-8	3.364234E-3
4.295000E-8	2.641371E-3
4.300000E-8	2.031562E-3
4.305000E-8	1.582771E-3
4.310000E-8	1.308700E-3
4.315000E-8	1.226478E-3
4.320000E-8	1.377217E-3
4.325000E-8	1.754065E-3
4.330000E-8	2.305634E-3
4.335000E-8	2.983960E-3
4.340000E-8	3.778766E-3
4.345000E-8	4.618109E-3
4.350000E-8	5.430045E-3
4.355000E-8	6.211148E-3
4.360000E-8	6.947715E-3
4.365000E-8	7.560949E-3
4.370000E-8	7.996037E-3
4.375000E-8	8.263257E-3
4.380000E-8	8.345478E-3
4.385000E-8	8.201591E-3
4.390000E-8	7.865853E-3
4.395000E-8	7.413636E-3
4.400000E-8	6.817531E-3
4.405000E-8	6.053557E-3
4.410000E-8	5.210788E-3
4.415000E-8	4.371445E-3
4.420000E-8	3.535528E-3
4.425000E-8	2.740722E-3
4.430000E-8	2.093228E-3
4.435000E-8	1.617030E-3
4.440000E-8	1.301848E-3
4.445000E-8	1.175090E-3
4.450000E-8	1.281293E-3
4.455000E-8	1.606752E-3
4.460000E-8	2.117210E-3
4.465000E-8	2.764703E-3
4.470000E-8	3.484140E-3
4.475000E-8	4.220706E-3
4.480000E-8	4.960698E-3
4.485000E-8	5.639025E-3
4.490000E-8	6.197445E-3
4.495000E-8	6.615403E-3
4.500000E-8	6.910030E-3
4.505000E-8	7.074473E-3
4.510000E-8	7.101880E-3
4.515000E-8	6.995677E-3
4.520000E-8	6.759291E-3
4.525000E-8	6.423554E-3
4.530000E-8	5.998743E-3
4.535000E-8	5.525970E-3
4.540000E-8	5.018939E-3
4.545000E-8	4.474222E-3
4.550000E-8	3.915802E-3
4.555000E-8	3.377937E-3
4.560000E-8	2.888035E-3
4.565000E-8	2.459799E-3
4.570000E-8	2.130913E-3
4.575000E-8	1.921934E-3
4.580000E-8	1.849990E-3
4.585000E-8	1.935638E-3
4.590000E-8	2.161746E-3
4.595000E-8	2.524891E-3
4.600000E-8	3.055904E-3
4.605000E-8	3.713674E-3
4.610000E-8	4.422834E-3
4.615000E-8	5.125141E-3
4.620000E-8	5.844578E-3
4.625000E-8	6.509201E-3
4.630000E-8	7.040214E-3
4.635000E-8	7.417062E-3
4.640000E-8	7.650022E-3
4.645000E-8	7.680855E-3
4.650000E-8	7.512987E-3
4.655000E-8	7.204656E-3
4.660000E-8	6.772994E-3
4.665000E-8	6.228278E-3
4.670000E-8	5.628747E-3
4.675000E-8	5.022364E-3
4.680000E-8	4.419408E-3
4.685000E-8	3.874691E-3
4.690000E-8	3.425900E-3
4.695000E-8	3.073033E-3
4.700000E-8	2.826369E-3
4.705000E-8	2.696185E-3
4.710000E-8	2.685907E-3
4.715000E-8	2.781832E-3
4.720000E-8	3.001089E-3
4.725000E-8	3.323123E-3
4.730000E-8	3.689693E-3
4.735000E-8	4.097374E-3
4.740000E-8	4.570147E-3
4.745000E-8	5.097734E-3
4.750000E-8	5.628747E-3
4.755000E-8	6.111798E-3
4.760000E-8	6.533182E-3
4.765000E-8	6.899752E-3
4.770000E-8	7.184101E-3
4.775000E-8	7.314285E-3
4.780000E-8	7.293730E-3
4.785000E-8	7.153268E-3
4.790000E-8	6.886049E-3
4.795000E-8	6.471516E-3
4.800000E-8	5.940503E-3
4.805000E-8	5.351250E-3
4.810000E-8	4.731164E-3
4.815000E-8	4.111078E-3
4.820000E-8	3.535528E-3
4.825000E-8	3.049052E-3
4.830000E-8	2.672204E-3
4.835000E-8	2.401559E-3
4.840000E-8	2.267949E-3
4.845000E-8	2.295356E-3
4.850000E-8	2.470076E-3
4.855000E-8	2.747573E-3
4.860000E-8	3.124421E-3
4.865000E-8	3.593768E-3
4.870000E-8	4.097374E-3
4.875000E-8	4.590702E-3
4.880000E-8	5.084031E-3
4.885000E-8	5.556803E-3
4.890000E-8	5.985040E-3
4.895000E-8	6.341332E-3
4.900000E-8	6.608552E-3
4.905000E-8	6.762717E-3
4.910000E-8	6.793550E-3
4.915000E-8	6.704477E-3
4.920000E-8	6.474942E-3
4.925000E-8	6.125501E-3
4.930000E-8	5.680135E-3
4.935000E-8	5.149122E-3
4.940000E-8	4.570147E-3
4.945000E-8	4.001449E-3
4.950000E-8	3.467010E-3
4.955000E-8	2.977108E-3
4.960000E-8	2.552298E-3
4.965000E-8	2.223412E-3
4.970000E-8	2.031562E-3
4.975000E-8	2.004155E-3
4.980000E-8	2.130913E-3
4.985000E-8	2.384429E-3
4.990000E-8	2.757851E-3
4.995000E-8	3.216920E-3
5.000000E-8	3.747933E-3
5.005000E-8	4.323483E-3
5.010000E-8	4.888755E-3
5.015000E-8	5.395787E-3
5.020000E-8	5.875411E-3
5.025000E-8	6.313925E-3
5.030000E-8	6.639385E-3
5.035000E-8	6.824383E-3
5.040000E-8	6.920308E-3
5.045000E-8	6.923734E-3
5.050000E-8	6.820957E-3
5.055000E-8	6.608552E-3
5.060000E-8	6.324203E-3
5.065000E-8	5.967910E-3
5.070000E-8	5.549952E-3
5.075000E-8	5.073753E-3
5.080000E-8	4.597554E-3
5.085000E-8	4.152188E-3
5.090000E-8	3.758211E-3
5.095000E-8	3.408770E-3
5.100000E-8	3.127847E-3
5.105000E-8	2.939423E-3
5.110000E-8	2.860628E-3
5.115000E-8	2.884609E-3
5.120000E-8	3.018219E-3
5.125000E-8	3.261457E-3
5.130000E-8	3.604046E-3
5.135000E-8	4.042560E-3
5.140000E-8	4.549592E-3
5.145000E-8	5.060049E-3
5.150000E-8	5.525970E-3
5.155000E-8	5.930225E-3
5.160000E-8	6.262537E-3
5.165000E-8	6.495497E-3
5.170000E-8	6.584570E-3
5.175000E-8	6.498923E-3
5.180000E-8	6.255685E-3
5.185000E-8	5.889115E-3
5.190000E-8	5.426620E-3
5.195000E-8	4.916162E-3
5.200000E-8	4.395427E-3
5.205000E-8	3.898673E-3
5.210000E-8	3.432751E-3
5.215000E-8	3.042200E-3
5.220000E-8	2.771555E-3
5.225000E-8	2.655074E-3
5.230000E-8	2.665352E-3
5.235000E-8	2.774981E-3
5.240000E-8	3.001089E-3
5.245000E-8	3.319697E-3
5.250000E-8	3.675990E-3
5.255000E-8	4.059689E-3
5.260000E-8	4.511907E-3
5.265000E-8	4.967550E-3
5.270000E-8	5.340972E-3
5.275000E-8	5.690413E-3
5.280000E-8	6.053557E-3
5.285000E-8	6.331055E-3
5.290000E-8	6.468090E-3
5.295000E-8	6.543460E-3
5.300000E-8	6.591422E-3
5.305000E-8	6.546886E-3
5.310000E-8	6.389295E-3
5.315000E-8	6.135779E-3
5.320000E-8	5.817171E-3
5.325000E-8	5.457453E-3
5.330000E-8	5.070327E-3
5.335000E-8	4.631813E-3
5.340000E-8	4.196725E-3
5.345000E-8	3.826729E-3
5.350000E-8	3.504695E-3
5.355000E-8	3.216920E-3
5.360000E-8	3.001089E-3
5.365000E-8	2.894887E-3
5.370000E-8	2.870906E-3
5.375000E-8	2.918868E-3
5.380000E-8	3.052478E-3
5.385000E-8	3.285438E-3
5.390000E-8	3.597194E-3
5.395000E-8	3.950061E-3
5.400000E-8	4.330335E-3
5.405000E-8	4.744867E-3
5.410000E-8	5.173104E-3
5.415000E-8	5.563655E-3
5.420000E-8	5.895966E-3
5.425000E-8	6.183741E-3
5.430000E-8	6.420128E-3
5.435000E-8	6.553737E-3
5.440000E-8	6.581144E-3
5.445000E-8	6.522904E-3
5.450000E-8	6.379017E-3
5.455000E-8	6.101520E-3
5.460000E-8	5.710968E-3
5.465000E-8	5.279306E-3
5.470000E-8	4.816811E-3
5.475000E-8	4.320057E-3
5.480000E-8	3.837007E-3
5.485000E-8	3.429326E-3
5.490000E-8	3.090162E-3
5.495000E-8	2.840073E-3
5.500000E-8	2.723592E-3
5.505000E-8	2.754425E-3
5.510000E-8	2.898313E-3
5.515000E-8	3.138125E-3
5.520000E-8	3.480714E-3
5.525000E-8	3.881543E-3
5.530000E-8	4.347464E-3
5.535000E-8	4.875051E-3
5.540000E-8	5.395787E-3
5.545000E-8	5.841152E-3
5.550000E-8	6.204297E-3
5.555000E-8	6.495497E-3
5.560000E-8	6.673644E-3
5.565000E-8	6.735310E-3
5.570000E-8	6.718180E-3
5.575000E-8	6.608552E-3
5.580000E-8	6.375591E-3
5.585000E-8	6.060409E-3
5.590000E-8	5.697265E-3
5.595000E-8	5.258751E-3
5.600000E-8	4.755145E-3
5.605000E-8	4.272095E-3
5.610000E-8	3.833581E-3
5.615000E-8	3.432751E-3
5.620000E-8	3.107292E-3
5.625000E-8	2.884609E-3
5.630000E-8	2.764703E-3
5.635000E-8	2.757851E-3
5.640000E-8	2.881183E-3
5.645000E-8	3.107292E-3
5.650000E-8	3.398493E-3
5.655000E-8	3.771915E-3
5.660000E-8	4.207003E-3
5.665000E-8	4.635239E-3
5.670000E-8	5.025790E-3
5.675000E-8	5.358102E-3
5.680000E-8	5.604766E-3
5.685000E-8	5.758931E-3
5.690000E-8	5.837726E-3
5.695000E-8	5.820597E-3
5.700000E-8	5.748653E-3
5.705000E-8	5.659580E-3
5.710000E-8	5.491711E-3
5.715000E-8	5.234770E-3
5.720000E-8	4.984680E-3
5.725000E-8	4.758571E-3
5.730000E-8	4.487926E-3
5.735000E-8	4.217280E-3
5.740000E-8	4.022005E-3
5.745000E-8	3.864414E-3
5.750000E-8	3.696545E-3
5.755000E-8	3.573213E-3
5.760000E-8	3.532102E-3
5.765000E-8	3.542380E-3
5.770000E-8	3.583491E-3
5.775000E-8	3.665712E-3
5.780000E-8	3.802748E-3
5.785000E-8	3.991172E-3
5.790000E-8	4.200151E-3
5.795000E-8	4.395427E-3
5.800000E-8	4.607832E-3
5.805000E-8	4.837366E-3
5.810000E-8	5.039494E-3
5.815000E-8	5.207363E-3
5.820000E-8	5.347824E-3
5.825000E-8	5.454027E-3
5.830000E-8	5.498563E-3
5.835000E-8	5.498563E-3
5.840000E-8	5.457453E-3
5.845000E-8	5.358102E-3
5.850000E-8	5.203937E-3
5.855000E-8	5.018939E-3
5.860000E-8	4.813385E-3
5.865000E-8	4.580425E-3
5.870000E-8	4.354316E-3
5.875000E-8	4.162466E-3
5.880000E-8	3.974042E-3
5.885000E-8	3.806174E-3
5.890000E-8	3.669138E-3
5.895000E-8	3.556084E-3
5.900000E-8	3.473862E-3
5.905000E-8	3.443029E-3
5.910000E-8	3.477288E-3
5.915000E-8	3.552658E-3
5.920000E-8	3.665712E-3
5.925000E-8	3.830155E-3
5.930000E-8	4.028856E-3
5.935000E-8	4.234410E-3
5.940000E-8	4.450241E-3
5.945000E-8	4.679775E-3
5.950000E-8	4.929865E-3
5.955000E-8	5.125141E-3
5.960000E-8	5.231344E-3
5.965000E-8	5.296436E-3
5.970000E-8	5.337546E-3
5.975000E-8	5.262177E-3
5.980000E-8	5.094308E-3
5.985000E-8	4.916162E-3
5.990000E-8	4.727738E-3
5.995000E-8	4.474222E-3
6.000000E-8	4.230984E-3
6.005000E-8	4.049412E-3
6.010000E-8	3.857562E-3
6.015000E-8	3.669138E-3
6.020000E-8	3.576639E-3
6.025000E-8	3.556084E-3
6.030000E-8	3.542380E-3
6.035000E-8	3.597194E-3
6.040000E-8	3.751359E-3
6.045000E-8	3.922654E-3
6.050000E-8	4.128207E-3
6.055000E-8	4.412556E-3
6.060000E-8	4.734590E-3
6.065000E-8	5.063475E-3
6.070000E-8	5.388935E-3
6.075000E-8	5.673284E-3
6.080000E-8	5.889115E-3
6.085000E-8	6.050132E-3
6.090000E-8	6.118649E-3
6.095000E-8	6.056983E-3
6.100000E-8	5.940503E-3
6.105000E-8	5.786338E-3
6.110000E-8	5.553377E-3
6.115000E-8	5.248473E-3
6.120000E-8	4.950421E-3
6.125000E-8	4.683201E-3
6.130000E-8	4.429686E-3
6.135000E-8	4.207003E-3
6.140000E-8	4.022005E-3
6.145000E-8	3.891821E-3
6.150000E-8	3.795896E-3
6.155000E-8	3.703397E-3
6.160000E-8	3.617750E-3
6.165000E-8	3.586917E-3
6.170000E-8	3.597194E-3
6.175000E-8	3.600620E-3
6.180000E-8	3.614324E-3
6.185000E-8	3.689693E-3
6.190000E-8	3.819877E-3
6.195000E-8	3.970616E-3
6.200000E-8	4.165892E-3
6.205000E-8	4.368019E-3
6.210000E-8	4.542740E-3
6.215000E-8	4.731164E-3
6.220000E-8	4.940143E-3
6.225000E-8	5.080605E-3
6.230000E-8	5.118289E-3
6.235000E-8	5.087456E-3
6.240000E-8	4.994957E-3
6.245000E-8	4.851070E-3
6.250000E-8	4.690053E-3
6.255000E-8	4.491352E-3
6.260000E-8	4.258391E-3
6.265000E-8	4.045986E-3
6.270000E-8	3.878117E-3
6.275000E-8	3.730804E-3
6.280000E-8	3.638305E-3
6.285000E-8	3.617750E-3
6.290000E-8	3.610898E-3
6.295000E-8	3.610898E-3
6.300000E-8	3.658860E-3
6.305000E-8	3.744507E-3
6.310000E-8	3.826729E-3
6.315000E-8	3.908950E-3
6.320000E-8	4.025430E-3
6.325000E-8	4.148763E-3
6.330000E-8	4.268669E-3
6.335000E-8	4.392001E-3
6.340000E-8	4.542740E-3
6.345000E-8	4.703757E-3
6.350000E-8	4.864774E-3
6.355000E-8	4.991531E-3
6.360000E-8	5.073753E-3
6.365000E-8	5.104586E-3
6.370000E-8	5.090882E-3
6.375000E-8	5.005235E-3
6.380000E-8	4.851070E-3
6.385000E-8	4.652368E-3
6.390000E-8	4.429686E-3
6.395000E-8	4.186447E-3
6.400000E-8	3.946635E-3
6.405000E-8	3.741082E-3
6.410000E-8	3.569787E-3
6.415000E-8	3.429326E-3
6.420000E-8	3.364234E-3
6.425000E-8	3.412196E-3
6.430000E-8	3.552658E-3
6.435000E-8	3.754785E-3
6.440000E-8	4.025430E-3
6.445000E-8	4.350890E-3
6.450000E-8	4.662646E-3
6.455000E-8	4.946995E-3
6.460000E-8	5.224492E-3
6.465000E-8	5.457453E-3
6.470000E-8	5.601340E-3
6.475000E-8	5.666432E-3
6.480000E-8	5.686987E-3
6.485000E-8	5.649302E-3
6.490000E-8	5.549952E-3
6.495000E-8	5.426620E-3
6.500000E-8	5.275880E-3
6.505000E-8	5.111438E-3
6.510000E-8	4.950421E-3
6.515000E-8	4.799682E-3
6.520000E-8	4.672924E-3
6.525000E-8	4.590702E-3
6.530000E-8	4.529036E-3
6.535000E-8	4.453667E-3
6.540000E-8	4.392001E-3
6.545000E-8	4.357742E-3
6.550000E-8	4.296076E-3
6.555000E-8	4.207003E-3
6.560000E-8	4.124781E-3
6.565000E-8	4.039134E-3
6.570000E-8	3.963764E-3
6.575000E-8	3.912376E-3
6.580000E-8	3.898673E-3
6.585000E-8	3.939783E-3
6.590000E-8	4.039134E-3
6.595000E-8	4.183021E-3
6.600000E-8	4.361168E-3
6.605000E-8	4.590702E-3
6.610000E-8	4.833941E-3
6.615000E-8	5.039494E-3
6.620000E-8	5.224492E-3
6.625000E-8	5.347824E-3
6.630000E-8	5.358102E-3
6.635000E-8	5.272454E-3
6.640000E-8	5.131993E-3
6.645000E-8	4.909310E-3
6.650000E-8	4.611258E-3
6.655000E-8	4.320057E-3
6.660000E-8	4.052838E-3
6.665000E-8	3.813025E-3
6.670000E-8	3.648583E-3
6.675000E-8	3.569787E-3
6.680000E-8	3.549232E-3
6.685000E-8	3.604046E-3
6.690000E-8	3.727378E-3
6.695000E-8	3.867840E-3
6.700000E-8	4.011727E-3
6.705000E-8	4.179596E-3
6.710000E-8	4.316631E-3
6.715000E-8	4.388575E-3
6.720000E-8	4.433111E-3
6.725000E-8	4.477648E-3
6.730000E-8	4.501629E-3
6.735000E-8	4.508481E-3
6.740000E-8	4.508481E-3
6.745000E-8	4.518759E-3
6.750000E-8	4.546166E-3
6.755000E-8	4.600980E-3
6.760000E-8	4.679775E-3
6.765000E-8	4.765423E-3
6.770000E-8	4.823663E-3
6.775000E-8	4.857922E-3
6.780000E-8	4.909310E-3
6.785000E-8	4.957273E-3
6.790000E-8	4.967550E-3
6.795000E-8	4.933291E-3
6.800000E-8	4.885329E-3
6.805000E-8	4.840792E-3
6.810000E-8	4.782552E-3
6.815000E-8	4.703757E-3
6.820000E-8	4.655794E-3
6.825000E-8	4.666072E-3
6.830000E-8	4.690053E-3
6.835000E-8	4.690053E-3
6.840000E-8	4.724312E-3
6.845000E-8	4.823663E-3
6.850000E-8	4.905884E-3
6.855000E-8	4.940143E-3
6.860000E-8	4.984680E-3
6.865000E-8	5.056623E-3
6.870000E-8	5.094308E-3
6.875000E-8	5.084031E-3
6.880000E-8	5.084031E-3
6.885000E-8	5.087456E-3
6.890000E-8	5.029216E-3
6.895000E-8	4.933291E-3
6.900000E-8	4.871625E-3
6.905000E-8	4.820237E-3
6.910000E-8	4.727738E-3
6.915000E-8	4.624961E-3
6.920000E-8	4.556443E-3
6.925000E-8	4.501629E-3
6.930000E-8	4.429686E-3
6.935000E-8	4.385149E-3
6.940000E-8	4.361168E-3
6.945000E-8	4.350890E-3
6.950000E-8	4.368019E-3
6.955000E-8	4.409130E-3
6.960000E-8	4.436537E-3
6.965000E-8	4.477648E-3
6.970000E-8	4.573573E-3
6.975000E-8	4.655794E-3
6.980000E-8	4.717460E-3
6.985000E-8	4.799682E-3
6.990000E-8	4.881903E-3
6.995000E-8	4.929865E-3
7.000000E-8	4.991531E-3
7.005000E-8	5.073753E-3
7.010000E-8	5.108012E-3
7.015000E-8	5.108012E-3
7.020000E-8	5.135419E-3
7.025000E-8	5.183381E-3
7.030000E-8	5.197085E-3
7.035000E-8	5.169678E-3
7.040000E-8	5.114864E-3
7.045000E-8	5.073753E-3
7.050000E-8	5.025790E-3
7.055000E-8	4.946995E-3
7.060000E-8	4.868199E-3
7.065000E-8	4.816811E-3
7.070000E-8	4.744867E-3
7.075000E-8	4.618109E-3
7.080000E-8	4.518759E-3
7.085000E-8	4.467370E-3
7.090000E-8	4.426260E-3
7.095000E-8	4.361168E-3
7.100000E-8	4.323483E-3
7.105000E-8	4.306353E-3
7.110000E-8	4.278946E-3
7.115000E-8	4.268669E-3
7.120000E-8	4.285798E-3
7.125000E-8	4.306353E-3
7.130000E-8	4.337186E-3
7.135000E-8	4.378297E-3
7.140000E-8	4.412556E-3
7.145000E-8	4.457093E-3
7.150000E-8	4.529036E-3
7.155000E-8	4.583851E-3
7.160000E-8	4.614684E-3
7.165000E-8	4.659220E-3
7.170000E-8	4.710608E-3
7.175000E-8	4.734590E-3
7.180000E-8	4.724312E-3
7.185000E-8	4.696905E-3
7.190000E-8	4.642091E-3
7.195000E-8	4.576999E-3
7.200000E-8	4.532462E-3
7.205000E-8	4.494777E-3
7.210000E-8	4.460519E-3
7.215000E-8	4.457093E-3
7.220000E-8	4.463944E-3
7.225000E-8	4.460519E-3
7.230000E-8	4.467370E-3
7.235000E-8	4.511907E-3
7.240000E-8	4.576999E-3
7.245000E-8	4.655794E-3
7.250000E-8	4.744867E-3
7.255000E-8	4.813385E-3
7.260000E-8	4.888755E-3
7.265000E-8	4.991531E-3
7.270000E-8	5.087456E-3
7.275000E-8	5.145697E-3
7.280000E-8	5.203937E-3
7.285000E-8	5.258751E-3
7.290000E-8	5.245047E-3
7.295000E-8	5.169678E-3
7.300000E-8	5.087456E-3
7.305000E-8	4.977828E-3
7.310000E-8	4.796256E-3
7.315000E-8	4.553018E-3
7.320000E-8	4.316631E-3
7.325000E-8	4.121355E-3
7.330000E-8	3.977468E-3
7.335000E-8	3.864414E-3
7.340000E-8	3.785618E-3
7.345000E-8	3.771915E-3
7.350000E-8	3.813025E-3
7.355000E-8	3.888395E-3
7.360000E-8	4.004875E-3
7.365000E-8	4.179596E-3
7.370000E-8	4.354316E-3
7.375000E-8	4.494777E-3
7.380000E-8	4.621535E-3
7.385000E-8	4.751719E-3
7.390000E-8	4.830515E-3
7.395000E-8	4.813385E-3
7.400000E-8	4.734590E-3
7.405000E-8	4.642091E-3
7.410000E-8	4.539314E-3
7.415000E-8	4.398852E-3
7.420000E-8	4.244687E-3
7.425000E-8	4.138485E-3
7.430000E-8	4.083671E-3
7.435000E-8	4.028856E-3
7.440000E-8	3.987746E-3
7.445000E-8	4.008301E-3
7.450000E-8	4.076819E-3
7.455000E-8	4.141911E-3
7.460000E-8	4.193299E-3
7.465000E-8	4.234410E-3
7.470000E-8	4.261817E-3
7.475000E-8	4.254965E-3
7.480000E-8	4.234410E-3
7.485000E-8	4.193299E-3
7.490000E-8	4.124781E-3
7.495000E-8	4.069967E-3
7.500000E-8	4.052838E-3
7.505000E-8	4.028856E-3
7.510000E-8	4.008301E-3
7.515000E-8	4.052838E-3
7.520000E-8	4.186447E-3
7.525000E-8	4.320057E-3
7.530000E-8	4.446815E-3
7.535000E-8	4.597554E-3
7.540000E-8	4.761997E-3
7.545000E-8	4.902458E-3
7.550000E-8	5.008661E-3
7.555000E-8	5.084031E-3
7.560000E-8	5.121715E-3
7.565000E-8	5.138845E-3
7.570000E-8	5.128567E-3
7.575000E-8	5.070327E-3
7.580000E-8	4.981254E-3
7.585000E-8	4.895607E-3
7.590000E-8	4.779126E-3
7.595000E-8	4.628387E-3
7.600000E-8	4.498203E-3
7.605000E-8	4.415982E-3
7.610000E-8	4.302928E-3
7.615000E-8	4.162466E-3
7.620000E-8	4.076819E-3
7.625000E-8	4.032282E-3
7.630000E-8	3.953487E-3
7.635000E-8	3.874691E-3
7.640000E-8	3.874691E-3
7.645000E-8	3.902098E-3
7.650000E-8	3.908950E-3
7.655000E-8	3.960339E-3
7.660000E-8	4.045986E-3
7.665000E-8	4.117930E-3
7.670000E-8	4.193299E-3
7.675000E-8	4.316631E-3
7.680000E-8	4.422834E-3
7.685000E-8	4.481074E-3
7.690000E-8	4.542740E-3
7.695000E-8	4.590702E-3
7.700000E-8	4.590702E-3
7.705000E-8	4.566721E-3
7.710000E-8	4.529036E-3
7.715000E-8	4.439963E-3
7.720000E-8	4.337186E-3
7.725000E-8	4.278946E-3
7.730000E-8	4.230984E-3
7.735000E-8	4.179596E-3
7.740000E-8	4.176170E-3
7.745000E-8	4.227558E-3
7.750000E-8	4.275520E-3
7.755000E-8	4.344038E-3
7.760000E-8	4.443389E-3
7.765000E-8	4.525610E-3
7.770000E-8	4.556443E-3
7.775000E-8	4.563295E-3
7.780000E-8	4.576999E-3
7.785000E-8	4.556443E-3
7.790000E-8	4.470796E-3
7.795000E-8	4.371445E-3
7.800000E-8	4.299502E-3
7.805000E-8	4.220706E-3
7.810000E-8	4.124781E-3
7.815000E-8	4.073393E-3
7.820000E-8	4.076819E-3
7.825000E-8	4.093948E-3
7.830000E-8	4.124781E-3
7.835000E-8	4.210429E-3
7.840000E-8	4.323483E-3
7.845000E-8	4.453667E-3
7.850000E-8	4.614684E-3
7.855000E-8	4.761997E-3
7.860000E-8	4.857922E-3
7.865000E-8	4.926440E-3
7.870000E-8	4.998383E-3
7.875000E-8	5.029216E-3
7.880000E-8	4.988106E-3
7.885000E-8	4.926440E-3
7.890000E-8	4.868199E-3
7.895000E-8	4.775700E-3
7.900000E-8	4.659220E-3
7.905000E-8	4.553018E-3
7.910000E-8	4.477648E-3
7.915000E-8	4.436537E-3
7.920000E-8	4.419408E-3
7.925000E-8	4.443389E-3
7.930000E-8	4.508481E-3
7.935000E-8	4.583851E-3
7.940000E-8	4.645517E-3
7.945000E-8	4.710608E-3
7.950000E-8	4.765423E-3
7.955000E-8	4.772275E-3
7.960000E-8	4.765423E-3
7.965000E-8	4.785978E-3
7.970000E-8	4.765423E-3
7.975000E-8	4.700331E-3
7.980000E-8	4.666072E-3
7.985000E-8	4.655794E-3
7.990000E-8	4.624961E-3
7.995000E-8	4.604406E-3
8.000000E-8	4.624961E-3
8.005000E-8	4.638665E-3
8.010000E-8	4.645517E-3
8.015000E-8	4.686627E-3
8.020000E-8	4.741442E-3
8.025000E-8	4.761997E-3
8.030000E-8	4.768849E-3
8.035000E-8	4.761997E-3
8.040000E-8	4.751719E-3
8.045000E-8	4.775700E-3
8.050000E-8	4.809959E-3
8.055000E-8	4.796256E-3
8.060000E-8	4.758571E-3
8.065000E-8	4.758571E-3
8.070000E-8	4.779126E-3
8.075000E-8	4.785978E-3
8.080000E-8	4.803108E-3
8.085000E-8	4.854496E-3
8.090000E-8	4.888755E-3
8.095000E-8	4.912736E-3
8.100000E-8	4.957273E-3
8.105000E-8	5.008661E-3
8.110000E-8	5.032642E-3
8.115000E-8	5.018939E-3
8.120000E-8	4.984680E-3
8.125000E-8	4.953847E-3
8.130000E-8	4.929865E-3
8.135000E-8	4.892181E-3
8.140000E-8	4.827089E-3
8.145000E-8	4.765423E-3
8.150000E-8	4.707183E-3
8.155000E-8	4.628387E-3
8.160000E-8	4.518759E-3
8.165000E-8	4.419408E-3
8.170000E-8	4.323483E-3
8.175000E-8	4.224132E-3
8.180000E-8	4.135059E-3
8.185000E-8	4.066541E-3
8.190000E-8	3.998023E-3
8.195000E-8	3.922654E-3
8.200000E-8	3.895247E-3
8.205000E-8	3.936357E-3
8.210000E-8	4.004875E-3
8.215000E-8	4.045986E-3
8.220000E-8	4.107652E-3
8.225000E-8	4.237836E-3
8.230000E-8	4.378297E-3
8.235000E-8	4.467370E-3
8.240000E-8	4.518759E-3
8.245000E-8	4.549592E-3
8.250000E-8	4.511907E-3
8.255000E-8	4.409130E-3
8.260000E-8	4.302928E-3
8.265000E-8	4.183021E-3
8.270000E-8	4.018579E-3
8.275000E-8	3.857562E-3
8.280000E-8	3.758211E-3
8.285000E-8	3.717100E-3
8.290000E-8	3.686267E-3
8.295000E-8	3.686267E-3
8.300000E-8	3.741082E-3
8.305000E-8	3.840432E-3
8.310000E-8	3.929506E-3
8.315000E-8	3.994597E-3
8.320000E-8	4.052838E-3
8.325000E-8	4.097374E-3
8.330000E-8	4.097374E-3
8.335000E-8	4.052838E-3
8.340000E-8	3.998023E-3
8.345000E-8	3.956913E-3
8.350000E-8	3.929506E-3
8.355000E-8	3.915802E-3
8.360000E-8	3.936357E-3
8.365000E-8	3.987746E-3
8.370000E-8	4.073393E-3
8.375000E-8	4.186447E-3
8.380000E-8	4.326909E-3
8.385000E-8	4.494777E-3
8.390000E-8	4.648942E-3
8.395000E-8	4.789404E-3
8.400000E-8	4.933291E-3
8.405000E-8	5.053198E-3
8.410000E-8	5.121715E-3
8.415000E-8	5.149122E-3
8.420000E-8	5.152548E-3
8.425000E-8	5.142271E-3
8.430000E-8	5.125141E-3
8.435000E-8	5.090882E-3
8.440000E-8	5.049772E-3
8.445000E-8	5.022364E-3
8.450000E-8	5.001809E-3
8.455000E-8	4.970976E-3
8.460000E-8	4.960698E-3
8.465000E-8	4.988106E-3
8.470000E-8	5.008661E-3
8.475000E-8	4.988106E-3
8.480000E-8	4.991531E-3
8.485000E-8	5.012087E-3
8.490000E-8	4.977828E-3
8.495000E-8	4.919588E-3
8.500000E-8	4.881903E-3
8.505000E-8	4.833941E-3
8.510000E-8	4.751719E-3
8.515000E-8	4.679775E-3
8.520000E-8	4.638665E-3
8.525000E-8	4.611258E-3
8.530000E-8	4.590702E-3
8.535000E-8	4.573573E-3
8.540000E-8	4.563295E-3
8.545000E-8	4.566721E-3
8.550000E-8	4.570147E-3
8.555000E-8	4.556443E-3
8.560000E-8	4.570147E-3
8.565000E-8	4.655794E-3
8.570000E-8	4.724312E-3
8.575000E-8	4.734590E-3
8.580000E-8	4.761997E-3
8.585000E-8	4.837366E-3
8.590000E-8	4.905884E-3
8.595000E-8	4.933291E-3
8.600000E-8	4.936717E-3
8.605000E-8	4.916162E-3
8.610000E-8	4.875051E-3
8.615000E-8	4.823663E-3
8.620000E-8	4.761997E-3
8.625000E-8	4.679775E-3
8.630000E-8	4.590702E-3
8.635000E-8	4.508481E-3
8.640000E-8	4.419408E-3
8.645000E-8	4.333761E-3
8.650000E-8	4.278946E-3
8.655000E-8	4.227558E-3
8.660000E-8	4.176170E-3
8.665000E-8	4.162466E-3
8.670000E-8	4.165892E-3
8.675000E-8	4.165892E-3
8.680000E-8	4.200151E-3
8.685000E-8	4.275520E-3
8.690000E-8	4.313205E-3
8.695000E-8	4.326909E-3
8.700000E-8	4.388575E-3
8.705000E-8	4.477648E-3
8.710000E-8	4.525610E-3
8.715000E-8	4.553018E-3
8.720000E-8	4.587276E-3
8.725000E-8	4.618109E-3
8.730000E-8	4.621535E-3
8.735000E-8	4.600980E-3
8.740000E-8	4.597554E-3
8.745000E-8	4.621535E-3
8.750000E-8	4.621535E-3
8.755000E-8	4.590702E-3
8.760000E-8	4.587276E-3
8.765000E-8	4.611258E-3
8.770000E-8	4.614684E-3
8.775000E-8	4.614684E-3
8.780000E-8	4.659220E-3
8.785000E-8	4.707183E-3
8.790000E-8	4.724312E-3
8.795000E-8	4.768849E-3
8.800000E-8	4.823663E-3
8.805000E-8	4.854496E-3
8.810000E-8	4.902458E-3
8.815000E-8	4.974402E-3
8.820000E-8	5.025790E-3
8.825000E-8	5.066901E-3
8.830000E-8	5.118289E-3
8.835000E-8	5.138845E-3
8.840000E-8	5.111438E-3
8.845000E-8	5.084031E-3
8.850000E-8	5.022364E-3
8.855000E-8	4.916162E-3
8.860000E-8	4.792830E-3
8.865000E-8	4.679775E-3
8.870000E-8	4.546166E-3
8.875000E-8	4.405704E-3
8.880000E-8	4.289224E-3
8.885000E-8	4.207003E-3
8.890000E-8	4.165892E-3
8.895000E-8	4.162466E-3
8.900000E-8	4.186447E-3
8.905000E-8	4.227558E-3
8.910000E-8	4.282372E-3
8.915000E-8	4.347464E-3
8.920000E-8	4.405704E-3
8.925000E-8	4.446815E-3
8.930000E-8	4.460519E-3
8.935000E-8	4.422834E-3
8.940000E-8	4.368019E-3
8.945000E-8	4.313205E-3
8.950000E-8	4.224132E-3
8.955000E-8	4.097374E-3
8.960000E-8	3.984320E-3
8.965000E-8	3.888395E-3
8.970000E-8	3.819877E-3
8.975000E-8	3.809599E-3
8.980000E-8	3.878117E-3
8.985000E-8	3.977468E-3
8.990000E-8	4.107652E-3
8.995000E-8	4.306353E-3
9.000000E-8	4.532462E-3
9.005000E-8	4.758571E-3
9.010000E-8	4.977828E-3
9.015000E-8	5.145697E-3
9.020000E-8	5.217640E-3
9.025000E-8	5.269029E-3
9.030000E-8	5.296436E-3
9.035000E-8	5.251899E-3
9.040000E-8	5.155974E-3
9.045000E-8	5.090882E-3
9.050000E-8	5.022364E-3
9.055000E-8	4.919588E-3
9.060000E-8	4.851070E-3
9.065000E-8	4.837366E-3
9.070000E-8	4.833941E-3
9.075000E-8	4.827089E-3
9.080000E-8	4.816811E-3
9.085000E-8	4.775700E-3
9.090000E-8	4.744867E-3
9.095000E-8	4.751719E-3
9.100000E-8	4.755145E-3
9.105000E-8	4.748293E-3
9.110000E-8	4.758571E-3
9.115000E-8	4.789404E-3
9.120000E-8	4.837366E-3
9.125000E-8	4.936717E-3
9.130000E-8	5.046346E-3
9.135000E-8	5.152548E-3
9.140000E-8	5.296436E-3
9.145000E-8	5.471156E-3
9.150000E-8	5.591062E-3
9.155000E-8	5.649302E-3
9.160000E-8	5.731524E-3
9.165000E-8	5.776060E-3
9.170000E-8	5.728098E-3
9.175000E-8	5.628747E-3
9.180000E-8	5.512267E-3
9.185000E-8	5.327269E-3
9.190000E-8	5.094308E-3
9.195000E-8	4.864774E-3
9.200000E-8	4.655794E-3
9.205000E-8	4.457093E-3
9.210000E-8	4.282372E-3
9.215000E-8	4.128207E-3
9.220000E-8	4.015153E-3
9.225000E-8	3.974042E-3
9.230000E-8	4.018579E-3
9.235000E-8	4.124781E-3
9.240000E-8	4.285798E-3
9.245000E-8	4.498203E-3
9.250000E-8	4.734590E-3
9.255000E-8	4.957273E-3
9.260000E-8	5.128567E-3
9.265000E-8	5.255325E-3
9.270000E-8	5.313565E-3
9.275000E-8	5.282732E-3
9.280000E-8	5.159400E-3
9.285000E-8	4.988106E-3
9.290000E-8	4.772275E-3
9.295000E-8	4.518759E-3
9.300000E-8	4.316631E-3
9.305000E-8	4.217280E-3
9.310000E-8	4.189873E-3
9.315000E-8	4.207003E-3
9.320000E-8	4.306353E-3
9.325000E-8	4.498203E-3
9.330000E-8	4.724312E-3
9.335000E-8	4.964124E-3
9.340000E-8	5.203937E-3
9.345000E-8	5.409490E-3
9.350000E-8	5.539674E-3
9.355000E-8	5.594488E-3
9.360000E-8	5.560229E-3
9.365000E-8	5.436897E-3
9.370000E-8	5.262177E-3
9.375000E-8	5.073753E-3
9.380000E-8	4.854496E-3
9.385000E-8	4.642091E-3
9.390000E-8	4.477648E-3
9.395000E-8	4.361168E-3
9.400000E-8	4.306353E-3
9.405000E-8	4.320057E-3
9.410000E-8	4.385149E-3
9.415000E-8	4.460519E-3
9.420000E-8	4.546166E-3
9.425000E-8	4.659220E-3
9.430000E-8	4.744867E-3
9.435000E-8	4.792830E-3
9.440000E-8	4.833941E-3
9.445000E-8	4.871625E-3
9.450000E-8	4.847644E-3
9.455000E-8	4.796256E-3
9.460000E-8	4.775700E-3
9.465000E-8	4.761997E-3
9.470000E-8	4.710608E-3
9.475000E-8	4.683201E-3
9.480000E-8	4.700331E-3
9.485000E-8	4.703757E-3
9.490000E-8	4.669498E-3
9.495000E-8	4.635239E-3
9.500000E-8	4.618109E-3
9.505000E-8	4.587276E-3
9.510000E-8	4.576999E-3
9.515000E-8	4.583851E-3
9.520000E-8	4.576999E-3
9.525000E-8	4.580425E-3
9.530000E-8	4.638665E-3
9.535000E-8	4.720886E-3
9.540000E-8	4.806533E-3
9.545000E-8	4.909310E-3
9.550000E-8	5.032642E-3
9.555000E-8	5.128567E-3
9.560000E-8	5.190233E-3
9.565000E-8	5.221066E-3
9.570000E-8	5.197085E-3
9.575000E-8	5.128567E-3
9.580000E-8	5.053198E-3
9.585000E-8	4.946995E-3
9.590000E-8	4.792830E-3
9.595000E-8	4.648942E-3
9.600000E-8	4.559869E-3
9.605000E-8	4.498203E-3
9.610000E-8	4.474222E-3
9.615000E-8	4.505055E-3
9.620000E-8	4.535888E-3
9.625000E-8	4.583851E-3
9.630000E-8	4.666072E-3
9.635000E-8	4.731164E-3
9.640000E-8	4.724312E-3
9.645000E-8	4.696905E-3
9.650000E-8	4.666072E-3
9.655000E-8	4.590702E-3
9.660000E-8	4.511907E-3
9.665000E-8	4.439963E-3
9.670000E-8	4.333761E-3
9.675000E-8	4.207003E-3
9.680000E-8	4.121355E-3
9.685000E-8	4.066541E-3
9.690000E-8	4.025430E-3
9.695000E-8	4.015153E-3
9.700000E-8	3.994597E-3
9.705000E-8	3.970616E-3
9.710000E-8	3.991172E-3
9.715000E-8	4.025430E-3
9.720000E-8	4.022005E-3
9.725000E-8	4.059689E-3
9.730000E-8	4.169318E-3
9.735000E-8	4.261817E-3
9.740000E-8	4.333761E-3
9.745000E-8	4.446815E-3
9.750000E-8	4.566721E-3
9.755000E-8	4.669498E-3
9.760000E-8	4.796256E-3
9.765000E-8	4.909310E-3
9.770000E-8	4.933291E-3
9.775000E-8	4.936717E-3
9.780000E-8	4.967550E-3
9.785000E-8	4.974402E-3
9.790000E-8	4.943569E-3
9.795000E-8	4.929865E-3
9.800000E-8	4.926440E-3
9.805000E-8	4.933291E-3
9.810000E-8	4.953847E-3
9.815000E-8	4.984680E-3
9.820000E-8	5.018939E-3
9.825000E-8	5.070327E-3
9.830000E-8	5.121715E-3
9.835000E-8	5.128567E-3
9.840000E-8	5.108012E-3
9.845000E-8	5.090882E-3
9.850000E-8	5.046346E-3
9.855000E-8	4.943569E-3
9.860000E-8	4.827089E-3
9.865000E-8	4.741442E-3
9.870000E-8	4.648942E-3
9.875000E-8	4.532462E-3
9.880000E-8	4.446815E-3
9.885000E-8	4.412556E-3
9.890000E-8	4.402278E-3
9.895000E-8	4.402278E-3
9.900000E-8	4.433111E-3
9.905000E-8	4.511907E-3
9.910000E-8	4.607832E-3
9.915000E-8	4.686627E-3
9.920000E-8	4.751719E-3
9.925000E-8	4.823663E-3
9.930000E-8	4.899032E-3
9.935000E-8	4.936717E-3
9.940000E-8	4.946995E-3
9.945000E-8	4.943569E-3
9.950000E-8	4.899032E-3
9.955000E-8	4.799682E-3
9.960000E-8	4.696905E-3
9.965000E-8	4.594128E-3
9.970000E-8	4.460519E-3
9.975000E-8	4.320057E-3
9.980000E-8	4.230984E-3
9.985000E-8	4.176170E-3
9.990000E-8	4.148763E-3
9.995000E-8	4.176170E-3
1.000000E-7	4.244687E-3
1.000500E-7	4.347464E-3
1.001000E-7	4.460519E-3
1.001500E-7	4.573573E-3
1.002000E-7	4.700331E-3
1.002500E-7	4.854496E-3
1.003000E-7	4.984680E-3
1.003500E-7	5.029216E-3
1.004000E-7	5.046346E-3
1.004500E-7	5.090882E-3
1.005000E-7	5.101160E-3
1.005500E-7	5.042920E-3
1.006000E-7	4.974402E-3
1.006500E-7	4.926440E-3
1.007000E-7	4.864774E-3
1.007500E-7	4.775700E-3
1.008000E-7	4.686627E-3
1.008500E-7	4.600980E-3
1.009000E-7	4.535888E-3
1.009500E-7	4.481074E-3
1.010000E-7	4.415982E-3
1.010500E-7	4.364594E-3
1.011000E-7	4.347464E-3
1.011500E-7	4.330335E-3
1.012000E-7	4.316631E-3
1.012500E-7	4.330335E-3
1.013000E-7	4.364594E-3
1.013500E-7	4.368019E-3
1.014000E-7	4.357742E-3
1.014500E-7	4.364594E-3
1.015000E-7	4.364594E-3
1.015500E-7	4.347464E-3
1.016000E-7	4.316631E-3
1.016500E-7	4.292650E-3
1.017000E-7	4.272095E-3
1.017500E-7	4.278946E-3
1.018000E-7	4.313205E-3
1.018500E-7	4.354316E-3
1.019000E-7	4.385149E-3
1.019500E-7	4.433111E-3
1.020000E-7	4.525610E-3
1.020500E-7	4.648942E-3
1.021000E-7	4.744867E-3
1.021500E-7	4.809959E-3
1.022000E-7	4.854496E-3
1.022500E-7	4.885329E-3
1.023000E-7	4.864774E-3
1.023500E-7	4.813385E-3
1.024000E-7	4.761997E-3
1.024500E-7	4.734590E-3
1.025000E-7	4.714034E-3
1.025500E-7	4.693479E-3
1.026000E-7	4.703757E-3
1.026500E-7	4.772275E-3
1.027000E-7	4.871625E-3
1.027500E-7	4.970976E-3
1.028000E-7	5.073753E-3
1.028500E-7	5.190233E-3
1.029000E-7	5.279306E-3
1.029500E-7	5.299862E-3
1.030000E-7	5.282732E-3
1.030500E-7	5.272454E-3
1.031000E-7	5.231344E-3
1.031500E-7	5.118289E-3
1.032000E-7	4.984680E-3
1.032500E-7	4.905884E-3
1.033000E-7	4.837366E-3
1.033500E-7	4.744867E-3
1.034000E-7	4.714034E-3
1.034500E-7	4.761997E-3
1.035000E-7	4.816811E-3
1.035500E-7	4.840792E-3
1.036000E-7	4.892181E-3
1.036500E-7	4.953847E-3
1.037000E-7	4.953847E-3
1.037500E-7	4.892181E-3
1.038000E-7	4.806533E-3
1.038500E-7	4.686627E-3
1.039000E-7	4.539314E-3
1.039500E-7	4.385149E-3
1.040000E-7	4.224132E-3
1.040500E-7	4.059689E-3
1.041000E-7	3.926080E-3
1.041500E-7	3.843858E-3
1.042000E-7	3.795896E-3
1.042500E-7	3.799322E-3
1.043000E-7	3.857562E-3
1.043500E-7	3.929506E-3
1.044000E-7	4.018579E-3
1.044500E-7	4.165892E-3
1.045000E-7	4.344038E-3
1.045500E-7	4.491352E-3
1.046000E-7	4.604406E-3
1.046500E-7	4.727738E-3
1.047000E-7	4.844218E-3
1.047500E-7	4.919588E-3
1.048000E-7	4.974402E-3
1.048500E-7	5.015513E-3
1.049000E-7	5.008661E-3
1.049500E-7	4.974402E-3
1.050000E-7	4.936717E-3
1.050500E-7	4.888755E-3
1.051000E-7	4.809959E-3
1.051500E-7	4.724312E-3
1.052000E-7	4.628387E-3
1.052500E-7	4.529036E-3
1.053000E-7	4.450241E-3
1.053500E-7	4.388575E-3
1.054000E-7	4.354316E-3
1.054500E-7	4.374871E-3
1.055000E-7	4.467370E-3
1.055500E-7	4.583851E-3
1.056000E-7	4.720886E-3
1.056500E-7	4.868199E-3
1.057000E-7	4.988106E-3
1.057500E-7	5.087456E-3
1.058000E-7	5.203937E-3
1.058500E-7	5.316991E-3
1.059000E-7	5.378657E-3
1.059500E-7	5.371805E-3
1.060000E-7	5.323843E-3
1.060500E-7	5.255325E-3
1.061000E-7	5.203937E-3
1.061500E-7	5.128567E-3
1.062000E-7	5.012087E-3
1.062500E-7	4.923014E-3
1.063000E-7	4.878477E-3
1.063500E-7	4.830515E-3
1.064000E-7	4.772275E-3
1.064500E-7	4.751719E-3
1.065000E-7	4.731164E-3
1.065500E-7	4.690053E-3
1.066000E-7	4.666072E-3
1.066500E-7	4.642091E-3
1.067000E-7	4.583851E-3
1.067500E-7	4.525610E-3
1.068000E-7	4.508481E-3
1.068500E-7	4.494777E-3
1.069000E-7	4.474222E-3
1.069500E-7	4.470796E-3
1.070000E-7	4.484500E-3
1.070500E-7	4.505055E-3
1.071000E-7	4.539314E-3
1.071500E-7	4.590702E-3
1.072000E-7	4.631813E-3
1.072500E-7	4.652368E-3
1.073000E-7	4.652368E-3
1.073500E-7	4.635239E-3
1.074000E-7	4.621535E-3
1.074500E-7	4.624961E-3
1.075000E-7	4.607832E-3
1.075500E-7	4.583851E-3
1.076000E-7	4.563295E-3
1.076500E-7	4.549592E-3
1.077000E-7	4.542740E-3
1.077500E-7	4.549592E-3
1.078000E-7	4.563295E-3
1.078500E-7	4.580425E-3
1.079000E-7	4.594128E-3
1.079500E-7	4.587276E-3
1.080000E-7	4.559869E-3
1.080500E-7	4.546166E-3
1.081000E-7	4.542740E-3
1.081500E-7	4.508481E-3
1.082000E-7	4.443389E-3
1.082500E-7	4.398852E-3
1.083000E-7	4.378297E-3
1.083500E-7	4.371445E-3
1.084000E-7	4.398852E-3
1.084500E-7	4.460519E-3
1.085000E-7	4.525610E-3
1.085500E-7	4.583851E-3
1.086000E-7	4.669498E-3
1.086500E-7	4.761997E-3
1.087000E-7	4.830515E-3
1.087500E-7	4.888755E-3
1.088000E-7	4.960698E-3
1.088500E-7	5.039494E-3
1.089000E-7	5.084031E-3
1.089500E-7	5.080605E-3
1.090000E-7	5.077179E-3
1.090500E-7	5.104586E-3
1.091000E-7	5.114864E-3
1.091500E-7	5.070327E-3
1.092000E-7	5.046346E-3
1.092500E-7	5.042920E-3
1.093000E-7	4.991531E-3
1.093500E-7	4.919588E-3
1.094000E-7	4.854496E-3
1.094500E-7	4.755145E-3
1.095000E-7	4.618109E-3
1.095500E-7	4.498203E-3
1.096000E-7	4.409130E-3
1.096500E-7	4.326909E-3
1.097000E-7	4.265243E-3
1.097500E-7	4.224132E-3
1.098000E-7	4.193299E-3
1.098500E-7	4.186447E-3
1.099000E-7	4.213854E-3
1.099500E-7	4.248113E-3
1.100000E-7	4.278946E-3
1.100500E-7	4.333761E-3
1.101000E-7	4.374871E-3
1.101500E-7	4.381723E-3
1.102000E-7	4.381723E-3
1.102500E-7	4.395427E-3
1.103000E-7	4.398852E-3
1.103500E-7	4.405704E-3
1.104000E-7	4.457093E-3
1.104500E-7	4.549592E-3
1.105000E-7	4.642091E-3
1.105500E-7	4.751719E-3
1.106000E-7	4.909310E-3
1.106500E-7	5.090882E-3
1.107000E-7	5.238196E-3
1.107500E-7	5.337546E-3
1.108000E-7	5.440323E-3
1.108500E-7	5.536248E-3
1.109000E-7	5.563655E-3
1.109500E-7	5.515693E-3
1.110000E-7	5.447175E-3
1.110500E-7	5.361528E-3
1.111000E-7	5.234770E-3
1.111500E-7	5.066901E-3
1.112000E-7	4.892181E-3
1.112500E-7	4.738016E-3
1.113000E-7	4.590702E-3
1.113500E-7	4.422834E-3
1.114000E-7	4.285798E-3
1.114500E-7	4.241262E-3
1.115000E-7	4.230984E-3
1.115500E-7	4.210429E-3
1.116000E-7	4.193299E-3
1.116500E-7	4.213854E-3
1.117000E-7	4.248113E-3
1.117500E-7	4.282372E-3
1.118000E-7	4.323483E-3
1.118500E-7	4.357742E-3
1.119000E-7	4.361168E-3
1.119500E-7	4.326909E-3
1.120000E-7	4.272095E-3
1.120500E-7	4.227558E-3
1.121000E-7	4.193299E-3
1.121500E-7	4.145337E-3
1.122000E-7	4.087097E-3
1.122500E-7	4.063115E-3
1.123000E-7	4.059689E-3
1.123500E-7	4.069967E-3
1.124000E-7	4.107652E-3
1.124500E-7	4.176170E-3
1.125000E-7	4.224132E-3
1.125500E-7	4.258391E-3
1.126000E-7	4.326909E-3
1.126500E-7	4.398852E-3
1.127000E-7	4.415982E-3
1.127500E-7	4.388575E-3
1.128000E-7	4.350890E-3
1.128500E-7	4.302928E-3
1.129000E-7	4.244687E-3
1.129500E-7	4.176170E-3
1.130000E-7	4.093948E-3
1.130500E-7	4.039134E-3
1.131000E-7	4.025430E-3
1.131500E-7	4.025430E-3
1.132000E-7	4.039134E-3
1.132500E-7	4.080245E-3
1.133000E-7	4.128207E-3
1.133500E-7	4.159040E-3
1.134000E-7	4.200151E-3
1.134500E-7	4.265243E-3
1.135000E-7	4.306353E-3
1.135500E-7	4.299502E-3
1.136000E-7	4.296076E-3
1.136500E-7	4.320057E-3
1.137000E-7	4.316631E-3
1.137500E-7	4.289224E-3
1.138000E-7	4.268669E-3
1.138500E-7	4.251539E-3
1.139000E-7	4.244687E-3
1.139500E-7	4.292650E-3
1.140000E-7	4.371445E-3
1.140500E-7	4.426260E-3
1.141000E-7	4.463944E-3
1.141500E-7	4.508481E-3
1.142000E-7	4.542740E-3
1.142500E-7	4.529036E-3
1.143000E-7	4.501629E-3
1.143500E-7	4.477648E-3
1.144000E-7	4.439963E-3
1.144500E-7	4.395427E-3
1.145000E-7	4.357742E-3
1.145500E-7	4.333761E-3
1.146000E-7	4.309779E-3
1.146500E-7	4.309779E-3
1.147000E-7	4.344038E-3
1.147500E-7	4.392001E-3
1.148000E-7	4.419408E-3
1.148500E-7	4.433111E-3
1.149000E-7	4.443389E-3
1.149500E-7	4.446815E-3
1.150000E-7	4.446815E-3
1.150500E-7	4.450241E-3
1.151000E-7	4.429686E-3
1.151500E-7	4.378297E-3
1.152000E-7	4.326909E-3
1.152500E-7	4.302928E-3
1.153000E-7	4.306353E-3
1.153500E-7	4.326909E-3
1.154000E-7	4.340612E-3
1.154500E-7	4.333761E-3
1.155000E-7	4.333761E-3
1.155500E-7	4.364594E-3
1.156000E-7	4.395427E-3
1.156500E-7	4.402278E-3
1.157000E-7	4.402278E-3
1.157500E-7	4.405704E-3
1.158000E-7	4.398852E-3
1.158500E-7	4.409130E-3
1.159000E-7	4.426260E-3
1.159500E-7	4.422834E-3
1.160000E-7	4.426260E-3
1.160500E-7	4.474222E-3
1.161000E-7	4.535888E-3
1.161500E-7	4.600980E-3
1.162000E-7	4.690053E-3
1.162500E-7	4.806533E-3
1.163000E-7	4.916162E-3
1.163500E-7	5.012087E-3
1.164000E-7	5.073753E-3
1.164500E-7	5.090882E-3
1.165000E-7	5.077179E-3
1.165500E-7	5.049772E-3
1.166000E-7	4.994957E-3
1.166500E-7	4.929865E-3
1.167000E-7	4.851070E-3
1.167500E-7	4.731164E-3
1.168000E-7	4.618109E-3
1.168500E-7	4.549592E-3
1.169000E-7	4.477648E-3
1.169500E-7	4.374871E-3
1.170000E-7	4.309779E-3
1.170500E-7	4.309779E-3
1.171000E-7	4.340612E-3
1.171500E-7	4.371445E-3
1.172000E-7	4.429686E-3
1.172500E-7	4.532462E-3
1.173000E-7	4.659220E-3
1.173500E-7	4.761997E-3
1.174000E-7	4.837366E-3
1.174500E-7	4.909310E-3
1.175000E-7	4.960698E-3
1.175500E-7	4.964124E-3
1.176000E-7	4.950421E-3
1.176500E-7	4.933291E-3
1.177000E-7	4.875051E-3
1.177500E-7	4.779126E-3
1.178000E-7	4.710608E-3
1.178500E-7	4.690053E-3
1.179000E-7	4.648942E-3
1.179500E-7	4.597554E-3
1.180000E-7	4.570147E-3
1.180500E-7	4.566721E-3
1.181000E-7	4.549592E-3
1.181500E-7	4.518759E-3
1.182000E-7	4.498203E-3
1.182500E-7	4.505055E-3
1.183000E-7	4.542740E-3
1.183500E-7	4.573573E-3
1.184000E-7	4.587276E-3
1.184500E-7	4.635239E-3
1.185000E-7	4.714034E-3
1.185500E-7	4.785978E-3
1.186000E-7	4.861348E-3
1.186500E-7	4.957273E-3
1.187000E-7	5.022364E-3
1.187500E-7	5.018939E-3
1.188000E-7	4.998383E-3
1.188500E-7	4.960698E-3
1.189000E-7	4.878477E-3
1.189500E-7	4.768849E-3
1.190000E-7	4.652368E-3
1.190500E-7	4.522185E-3
1.191000E-7	4.374871E-3
1.191500E-7	4.237836E-3
1.192000E-7	4.114504E-3
1.192500E-7	4.039134E-3
1.193000E-7	4.015153E-3
1.193500E-7	4.018579E-3
1.194000E-7	4.025430E-3
1.194500E-7	4.069967E-3
1.195000E-7	4.107652E-3
1.195500E-7	4.076819E-3
1.196000E-7	4.032282E-3
1.196500E-7	4.018579E-3
1.197000E-7	3.953487E-3
1.197500E-7	3.802748E-3
1.198000E-7	3.703397E-3
1.198500E-7	3.699971E-3
1.199000E-7	3.686267E-3
1.199500E-7	3.686267E-3
1.200000E-7	3.771915E-3
1.200500E-7	3.929506E-3
1.201000E-7	4.107652E-3
1.201500E-7	4.326909E-3
1.202000E-7	4.590702E-3
1.202500E-7	4.854496E-3
1.203000E-7	5.084031E-3
1.203500E-7	5.265603E-3
1.204000E-7	5.412916E-3
1.204500E-7	5.512267E-3
1.205000E-7	5.512267E-3
1.205500E-7	5.402638E-3
1.206000E-7	5.269029E-3
1.206500E-7	5.159400E-3
1.207000E-7	5.029216E-3
1.207500E-7	4.881903E-3
1.208000E-7	4.785978E-3
1.208500E-7	4.761997E-3
1.209000E-7	4.765423E-3
1.209500E-7	4.761997E-3
1.210000E-7	4.772275E-3
1.210500E-7	4.806533E-3
1.211000E-7	4.809959E-3
1.211500E-7	4.768849E-3
1.212000E-7	4.710608E-3
1.212500E-7	4.631813E-3
1.213000E-7	4.487926E-3
1.213500E-7	4.292650E-3
1.214000E-7	4.121355E-3
1.214500E-7	3.967190E-3
1.215000E-7	3.792470E-3
1.215500E-7	3.652008E-3
1.216000E-7	3.593768E-3
1.216500E-7	3.576639E-3
1.217000E-7	3.590342E-3
1.217500E-7	3.682841E-3
1.218000E-7	3.813025E-3
1.218500E-7	3.943209E-3
1.219000E-7	4.080245E-3
1.219500E-7	4.224132E-3
1.220000E-7	4.354316E-3
1.220500E-7	4.484500E-3
1.221000E-7	4.600980E-3
1.221500E-7	4.686627E-3
1.222000E-7	4.748293E-3
1.222500E-7	4.789404E-3
1.223000E-7	4.806533E-3
1.223500E-7	4.803108E-3
1.224000E-7	4.792830E-3
1.224500E-7	4.772275E-3
1.225000E-7	4.727738E-3
1.225500E-7	4.669498E-3
1.226000E-7	4.597554E-3
1.226500E-7	4.518759E-3
1.227000E-7	4.457093E-3
1.227500E-7	4.419408E-3
1.228000E-7	4.398852E-3
1.228500E-7	4.402278E-3
1.229000E-7	4.419408E-3
1.229500E-7	4.463944E-3
1.230000E-7	4.546166E-3
1.230500E-7	4.638665E-3
1.231000E-7	4.727738E-3
1.231500E-7	4.820237E-3
1.232000E-7	4.933291E-3
1.232500E-7	5.022364E-3
1.233000E-7	5.036068E-3
1.233500E-7	4.994957E-3
1.234000E-7	4.977828E-3
1.234500E-7	4.953847E-3
1.235000E-7	4.871625E-3
1.235500E-7	4.755145E-3
1.236000E-7	4.655794E-3
1.236500E-7	4.556443E-3
1.237000E-7	4.450241E-3
1.237500E-7	4.364594E-3
1.238000E-7	4.292650E-3
1.238500E-7	4.217280E-3
1.239000E-7	4.162466E-3
1.239500E-7	4.131633E-3
1.240000E-7	4.114504E-3
1.240500E-7	4.117930E-3
1.241000E-7	4.138485E-3
1.241500E-7	4.162466E-3
1.242000E-7	4.213854E-3
1.242500E-7	4.302928E-3
1.243000E-7	4.398852E-3
1.243500E-7	4.460519E-3
1.244000E-7	4.505055E-3
1.244500E-7	4.559869E-3
1.245000E-7	4.597554E-3
1.245500E-7	4.600980E-3
1.246000E-7	4.594128E-3
1.246500E-7	4.587276E-3
1.247000E-7	4.535888E-3
1.247500E-7	4.457093E-3
1.248000E-7	4.405704E-3
1.248500E-7	4.378297E-3
1.249000E-7	4.323483E-3
1.249500E-7	4.275520E-3
1.250000E-7	4.278946E-3
1.250500E-7	4.306353E-3
1.251000E-7	4.337186E-3
1.251500E-7	4.388575E-3
1.252000E-7	4.467370E-3
1.252500E-7	4.563295E-3
1.253000E-7	4.683201E-3
1.253500E-7	4.803108E-3
1.254000E-7	4.902458E-3
1.254500E-7	5.018939E-3
1.255000E-7	5.138845E-3
1.255500E-7	5.234770E-3
1.256000E-7	5.323843E-3
1.256500E-7	5.426620E-3
1.257000E-7	5.491711E-3
1.257500E-7	5.501989E-3
1.258000E-7	5.512267E-3
1.258500E-7	5.498563E-3
1.259000E-7	5.416342E-3
1.259500E-7	5.299862E-3
1.260000E-7	5.179955E-3
1.260500E-7	5.042920E-3
1.261000E-7	4.905884E-3
1.261500E-7	4.806533E-3
1.262000E-7	4.717460E-3
1.262500E-7	4.628387E-3
1.263000E-7	4.576999E-3
1.263500E-7	4.559869E-3
1.264000E-7	4.556443E-3
1.264500E-7	4.566721E-3
1.265000E-7	4.559869E-3
1.265500E-7	4.518759E-3
1.266000E-7	4.474222E-3
1.266500E-7	4.439963E-3
1.267000E-7	4.388575E-3
1.267500E-7	4.316631E-3
1.268000E-7	4.275520E-3
1.268500E-7	4.248113E-3
1.269000E-7	4.227558E-3
1.269500E-7	4.248113E-3
1.270000E-7	4.302928E-3
1.270500E-7	4.350890E-3
1.271000E-7	4.388575E-3
1.271500E-7	4.422834E-3
1.272000E-7	4.446815E-3
1.272500E-7	4.443389E-3
1.273000E-7	4.426260E-3
1.273500E-7	4.374871E-3
1.274000E-7	4.302928E-3
1.274500E-7	4.261817E-3
1.275000E-7	4.241262E-3
1.275500E-7	4.237836E-3
1.276000E-7	4.278946E-3
1.276500E-7	4.388575E-3
1.277000E-7	4.525610E-3
1.277500E-7	4.669498E-3
1.278000E-7	4.833941E-3
1.278500E-7	5.005235E-3
1.279000E-7	5.138845E-3
1.279500E-7	5.251899E-3
1.280000E-7	5.334120E-3
1.280500E-7	5.354676E-3
1.281000E-7	5.323843E-3
1.281500E-7	5.258751E-3
1.282000E-7	5.179955E-3
1.282500E-7	5.080605E-3
1.283000E-7	4.988106E-3
1.283500E-7	4.933291E-3
1.284000E-7	4.923014E-3
1.284500E-7	4.957273E-3
1.285000E-7	5.036068E-3
1.285500E-7	5.128567E-3
1.286000E-7	5.190233E-3
1.286500E-7	5.217640E-3
1.287000E-7	5.224492E-3
1.287500E-7	5.186807E-3
1.288000E-7	5.080605E-3
1.288500E-7	4.923014E-3
1.289000E-7	4.734590E-3
1.289500E-7	4.511907E-3
1.290000E-7	4.272095E-3
1.290500E-7	4.059689E-3
1.291000E-7	3.891821E-3
1.291500E-7	3.758211E-3
1.292000E-7	3.682841E-3
1.292500E-7	3.727378E-3
1.293000E-7	3.847284E-3
1.293500E-7	3.998023E-3
1.294000E-7	4.203577E-3
1.294500E-7	4.453667E-3
1.295000E-7	4.669498E-3
1.295500E-7	4.823663E-3
1.296000E-7	4.936717E-3
1.296500E-7	4.988106E-3
1.297000E-7	4.967550E-3
1.297500E-7	4.912736E-3
1.298000E-7	4.851070E-3
1.298500E-7	4.772275E-3
1.299000E-7	4.666072E-3
1.299500E-7	4.570147E-3
1.300000E-7	4.525610E-3
1.300500E-7	4.525610E-3
1.301000E-7	4.546166E-3
1.301500E-7	4.583851E-3
1.302000E-7	4.662646E-3
1.302500E-7	4.751719E-3
1.303000E-7	4.806533E-3
1.303500E-7	4.813385E-3
1.304000E-7	4.803108E-3
1.304500E-7	4.765423E-3
1.305000E-7	4.696905E-3
1.305500E-7	4.631813E-3
1.306000E-7	4.549592E-3
1.306500E-7	4.460519E-3
1.307000E-7	4.412556E-3
1.307500E-7	4.405704E-3
1.308000E-7	4.385149E-3
1.308500E-7	4.381723E-3
1.309000E-7	4.388575E-3
1.309500E-7	4.374871E-3
1.310000E-7	4.357742E-3
1.310500E-7	4.378297E-3
1.311000E-7	4.381723E-3
1.311500E-7	4.333761E-3
1.312000E-7	4.285798E-3
1.312500E-7	4.258391E-3
1.313000E-7	4.224132E-3
1.313500E-7	4.183021E-3
1.314000E-7	4.152188E-3
1.314500E-7	4.148763E-3
1.315000E-7	4.186447E-3
1.315500E-7	4.248113E-3
1.316000E-7	4.313205E-3
1.316500E-7	4.392001E-3
1.317000E-7	4.470796E-3
1.317500E-7	4.532462E-3
1.318000E-7	4.587276E-3
1.318500E-7	4.662646E-3
1.319000E-7	4.731164E-3
1.319500E-7	4.765423E-3
1.320000E-7	4.789404E-3
1.320500E-7	4.823663E-3
1.321000E-7	4.854496E-3
1.321500E-7	4.861348E-3
1.322000E-7	4.847644E-3
1.322500E-7	4.809959E-3
1.323000E-7	4.741442E-3
1.323500E-7	4.659220E-3
1.324000E-7	4.590702E-3
1.324500E-7	4.501629E-3
1.325000E-7	4.409130E-3
1.325500E-7	4.330335E-3
1.326000E-7	4.251539E-3
1.326500E-7	4.193299E-3
1.327000E-7	4.169318E-3
1.327500E-7	4.172744E-3
1.328000E-7	4.193299E-3
1.328500E-7	4.230984E-3
1.329000E-7	4.272095E-3
1.329500E-7	4.313205E-3
1.330000E-7	4.402278E-3
1.330500E-7	4.525610E-3
1.331000E-7	4.611258E-3
1.331500E-7	4.672924E-3
1.332000E-7	4.782552E-3
1.332500E-7	4.902458E-3
1.333000E-7	4.984680E-3
1.333500E-7	5.056623E-3
1.334000E-7	5.128567E-3
1.334500E-7	5.159400E-3
1.335000E-7	5.173104E-3
1.335500E-7	5.176530E-3
1.336000E-7	5.125141E-3
1.336500E-7	5.018939E-3
1.337000E-7	4.902458E-3
1.337500E-7	4.799682E-3
1.338000E-7	4.686627E-3
1.338500E-7	4.553018E-3
1.339000E-7	4.426260E-3
1.339500E-7	4.344038E-3
1.340000E-7	4.278946E-3
1.340500E-7	4.220706E-3
1.341000E-7	4.189873E-3
1.341500E-7	4.241262E-3
1.342000E-7	4.316631E-3
1.342500E-7	4.381723E-3
1.343000E-7	4.460519E-3
1.343500E-7	4.553018E-3
1.344000E-7	4.645517E-3
1.344500E-7	4.727738E-3
1.345000E-7	4.799682E-3
1.345500E-7	4.875051E-3
1.346000E-7	4.950421E-3
1.346500E-7	5.001809E-3
1.347000E-7	5.036068E-3
1.347500E-7	5.094308E-3
1.348000E-7	5.155974E-3
1.348500E-7	5.183381E-3
1.349000E-7	5.179955E-3
1.349500E-7	5.159400E-3
1.350000E-7	5.108012E-3
1.350500E-7	5.049772E-3
1.351000E-7	4.994957E-3
1.351500E-7	4.909310E-3
1.352000E-7	4.799682E-3
1.352500E-7	4.724312E-3
1.353000E-7	4.669498E-3
1.353500E-7	4.594128E-3
1.354000E-7	4.535888E-3
1.354500E-7	4.535888E-3
1.355000E-7	4.553018E-3
1.355500E-7	4.563295E-3
1.356000E-7	4.580425E-3
1.356500E-7	4.597554E-3
1.357000E-7	4.614684E-3
1.357500E-7	4.645517E-3
1.358000E-7	4.666072E-3
1.358500E-7	4.648942E-3
1.359000E-7	4.594128E-3
1.359500E-7	4.539314E-3
1.360000E-7	4.494777E-3
1.360500E-7	4.446815E-3
1.361000E-7	4.398852E-3
1.361500E-7	4.368019E-3
1.362000E-7	4.354316E-3
1.362500E-7	4.364594E-3
1.363000E-7	4.402278E-3
1.363500E-7	4.457093E-3
1.364000E-7	4.511907E-3
1.364500E-7	4.580425E-3
1.365000E-7	4.662646E-3
1.365500E-7	4.741442E-3
1.366000E-7	4.816811E-3
1.366500E-7	4.912736E-3
1.367000E-7	4.974402E-3
1.367500E-7	4.984680E-3
1.368000E-7	5.012087E-3
1.368500E-7	5.063475E-3
1.369000E-7	5.084031E-3
1.369500E-7	5.032642E-3
1.370000E-7	4.981254E-3
1.370500E-7	4.943569E-3
1.371000E-7	4.888755E-3
1.371500E-7	4.792830E-3
1.372000E-7	4.683201E-3
1.372500E-7	4.570147E-3
1.373000E-7	4.453667E-3
1.373500E-7	4.337186E-3
1.374000E-7	4.241262E-3
1.374500E-7	4.148763E-3
1.375000E-7	4.052838E-3
1.375500E-7	3.998023E-3
1.376000E-7	4.011727E-3
1.376500E-7	4.076819E-3
1.377000E-7	4.162466E-3
1.377500E-7	4.261817E-3
1.378000E-7	4.388575E-3
1.378500E-7	4.535888E-3
1.379000E-7	4.700331E-3
1.379500E-7	4.847644E-3
1.380000E-7	4.974402E-3
1.380500E-7	5.094308E-3
1.381000E-7	5.179955E-3
1.381500E-7	5.203937E-3
1.382000E-7	5.176530E-3
1.382500E-7	5.111438E-3
1.383000E-7	4.984680E-3
1.383500E-7	4.816811E-3
1.384000E-7	4.642091E-3
1.384500E-7	4.491352E-3
1.385000E-7	4.337186E-3
1.385500E-7	4.203577E-3
1.386000E-7	4.131633E-3
1.386500E-7	4.145337E-3
1.387000E-7	4.220706E-3
1.387500E-7	4.309779E-3
1.388000E-7	4.398852E-3
1.388500E-7	4.508481E-3
1.389000E-7	4.631813E-3
1.389500E-7	4.724312E-3
1.390000E-7	4.772275E-3
1.390500E-7	4.779126E-3
1.391000E-7	4.741442E-3
1.391500E-7	4.652368E-3
1.392000E-7	4.535888E-3
1.392500E-7	4.422834E-3
1.393000E-7	4.326909E-3
1.393500E-7	4.258391E-3
1.394000E-7	4.237836E-3
1.394500E-7	4.244687E-3
1.395000E-7	4.282372E-3
1.395500E-7	4.378297E-3
1.396000E-7	4.522185E-3
1.396500E-7	4.645517E-3
1.397000E-7	4.703757E-3
1.397500E-7	4.741442E-3
1.398000E-7	4.789404E-3
1.398500E-7	4.785978E-3
1.399000E-7	4.707183E-3
1.399500E-7	4.587276E-3
1.400000E-7	4.457093E-3
1.400500E-7	4.330335E-3
1.401000E-7	4.230984E-3
1.401500E-7	4.169318E-3
1.402000E-7	4.152188E-3
1.402500E-7	4.207003E-3
1.403000E-7	4.316631E-3
1.403500E-7	4.450241E-3
1.404000E-7	4.607832E-3
1.404500E-7	4.796256E-3
1.405000E-7	4.967550E-3
1.405500E-7	5.063475E-3
1.406000E-7	5.118289E-3
1.406500E-7	5.142271E-3
1.407000E-7	5.114864E-3
1.407500E-7	5.042920E-3
1.408000E-7	4.936717E-3
1.408500E-7	4.806533E-3
1.409000E-7	4.655794E-3
1.409500E-7	4.511907E-3
1.410000E-7	4.392001E-3
1.410500E-7	4.309779E-3
1.411000E-7	4.282372E-3
1.411500E-7	4.302928E-3
1.412000E-7	4.354316E-3
1.412500E-7	4.436537E-3
1.413000E-7	4.553018E-3
1.413500E-7	4.679775E-3
1.414000E-7	4.816811E-3
1.414500E-7	4.964124E-3
1.415000E-7	5.080605E-3
1.415500E-7	5.149122E-3
1.416000E-7	5.203937E-3
1.416500E-7	5.251899E-3
1.417000E-7	5.279306E-3
1.417500E-7	5.275880E-3
1.418000E-7	5.262177E-3
1.418500E-7	5.207363E-3
1.419000E-7	5.108012E-3
1.419500E-7	5.008661E-3
1.420000E-7	4.926440E-3
1.420500E-7	4.830515E-3
1.421000E-7	4.714034E-3
1.421500E-7	4.614684E-3
1.422000E-7	4.549592E-3
1.422500E-7	4.484500E-3
1.423000E-7	4.415982E-3
1.423500E-7	4.357742E-3
1.424000E-7	4.309779E-3
1.424500E-7	4.237836E-3
1.425000E-7	4.148763E-3
1.425500E-7	4.076819E-3
1.426000E-7	4.018579E-3
1.426500E-7	3.980894E-3
1.427000E-7	3.943209E-3
1.427500E-7	3.898673E-3
1.428000E-7	3.888395E-3
1.428500E-7	3.908950E-3
1.429000E-7	3.936357E-3
1.429500E-7	3.987746E-3
1.430000E-7	4.107652E-3
1.430500E-7	4.254965E-3
1.431000E-7	4.388575E-3
1.431500E-7	4.518759E-3
1.432000E-7	4.655794E-3
1.432500E-7	4.748293E-3
1.433000E-7	4.803108E-3
1.433500E-7	4.847644E-3
1.434000E-7	4.861348E-3
1.434500E-7	4.827089E-3
1.435000E-7	4.779126E-3
1.435500E-7	4.714034E-3
1.436000E-7	4.642091E-3
1.436500E-7	4.604406E-3
1.437000E-7	4.583851E-3
1.437500E-7	4.539314E-3
1.438000E-7	4.518759E-3
1.438500E-7	4.556443E-3
1.439000E-7	4.621535E-3
1.439500E-7	4.645517E-3
1.440000E-7	4.666072E-3
1.440500E-7	4.714034E-3
1.441000E-7	4.765423E-3
1.441500E-7	4.768849E-3
1.442000E-7	4.768849E-3
1.442500E-7	4.785978E-3
1.443000E-7	4.789404E-3
1.443500E-7	4.792830E-3
1.444000E-7	4.840792E-3
1.444500E-7	4.888755E-3
1.445000E-7	4.881903E-3
1.445500E-7	4.861348E-3
1.446000E-7	4.864774E-3
1.446500E-7	4.871625E-3
1.447000E-7	4.823663E-3
1.447500E-7	4.748293E-3
1.448000E-7	4.672924E-3
1.448500E-7	4.583851E-3
1.449000E-7	4.474222E-3
1.449500E-7	4.350890E-3
1.450000E-7	4.224132E-3
1.450500E-7	4.100800E-3
1.451000E-7	4.008301E-3
1.451500E-7	3.956913E-3
1.452000E-7	3.926080E-3
1.452500E-7	3.902098E-3
1.453000E-7	3.895247E-3
1.453500E-7	3.922654E-3
1.454000E-7	3.998023E-3
1.454500E-7	4.080245E-3
1.455000E-7	4.145337E-3
1.455500E-7	4.210429E-3
1.456000E-7	4.313205E-3
1.456500E-7	4.450241E-3
1.457000E-7	4.583851E-3
1.457500E-7	4.693479E-3
1.458000E-7	4.782552E-3
1.458500E-7	4.864774E-3
1.459000E-7	4.943569E-3
1.459500E-7	5.012087E-3
1.460000E-7	5.032642E-3
1.460500E-7	5.036068E-3
1.461000E-7	5.066901E-3
1.461500E-7	5.094308E-3
1.462000E-7	5.087456E-3
1.462500E-7	5.073753E-3
1.463000E-7	5.063475E-3
1.463500E-7	5.029216E-3
1.464000E-7	4.988106E-3
1.464500E-7	4.981254E-3
1.465000E-7	4.991531E-3
1.465500E-7	4.957273E-3
1.466000E-7	4.919588E-3
1.466500E-7	4.905884E-3
1.467000E-7	4.881903E-3
1.467500E-7	4.820237E-3
1.468000E-7	4.758571E-3
1.468500E-7	4.700331E-3
1.469000E-7	4.628387E-3
1.469500E-7	4.546166E-3
1.470000E-7	4.463944E-3
1.470500E-7	4.395427E-3
1.471000E-7	4.330335E-3
1.471500E-7	4.248113E-3
1.472000E-7	4.152188E-3
1.472500E-7	4.080245E-3
1.473000E-7	4.039134E-3
1.473500E-7	3.977468E-3
1.474000E-7	3.929506E-3
1.474500E-7	3.936357E-3
1.475000E-7	3.967190E-3
1.475500E-7	3.984320E-3
1.476000E-7	4.045986E-3
1.476500E-7	4.196725E-3
1.477000E-7	4.354316E-3
1.477500E-7	4.470796E-3
1.478000E-7	4.576999E-3
1.478500E-7	4.683201E-3
1.479000E-7	4.738016E-3
1.479500E-7	4.755145E-3
1.480000E-7	4.789404E-3
1.480500E-7	4.820237E-3
1.481000E-7	4.772275E-3
1.481500E-7	4.686627E-3
1.482000E-7	4.648942E-3
1.482500E-7	4.655794E-3
1.483000E-7	4.659220E-3
1.483500E-7	4.662646E-3
1.484000E-7	4.724312E-3
1.484500E-7	4.840792E-3
1.485000E-7	4.933291E-3
1.485500E-7	4.984680E-3
1.486000E-7	5.015513E-3
1.486500E-7	5.036068E-3
1.487000E-7	5.018939E-3
1.487500E-7	4.940143E-3
1.488000E-7	4.823663E-3
1.488500E-7	4.696905E-3
1.489000E-7	4.570147E-3
1.489500E-7	4.450241E-3
1.490000E-7	4.354316E-3
1.490500E-7	4.289224E-3
1.491000E-7	4.248113E-3
1.491500E-7	4.241262E-3
1.492000E-7	4.261817E-3
1.492500E-7	4.316631E-3
1.493000E-7	4.381723E-3
1.493500E-7	4.450241E-3
1.494000E-7	4.518759E-3
1.494500E-7	4.587276E-3
1.495000E-7	4.662646E-3
1.495500E-7	4.731164E-3
1.496000E-7	4.785978E-3
1.496500E-7	4.816811E-3
1.497000E-7	4.820237E-3
1.497500E-7	4.816811E-3
1.498000E-7	4.827089E-3
1.498500E-7	4.847644E-3
1.499000E-7	4.868199E-3
1.499500E-7	4.902458E-3
1.500000E-7	4.977828E-3
1.500500E-7	5.060049E-3
1.501000E-7	5.118289E-3
1.501500E-7	5.186807E-3
1.502000E-7	5.293010E-3
1.502500E-7	5.382083E-3
1.503000E-7	5.409490E-3
1.503500E-7	5.409490E-3
1.504000E-7	5.406064E-3
1.504500E-7	5.354676E-3
1.505000E-7	5.234770E-3
1.505500E-7	5.087456E-3
1.506000E-7	4.940143E-3
1.506500E-7	4.782552E-3
1.507000E-7	4.607832E-3
1.507500E-7	4.446815E-3
1.508000E-7	4.299502E-3
1.508500E-7	4.193299E-3
1.509000E-7	4.131633E-3
1.509500E-7	4.100800E-3
1.510000E-7	4.100800E-3
1.510500E-7	4.141911E-3
1.511000E-7	4.176170E-3
1.511500E-7	4.162466E-3
1.512000E-7	4.152188E-3
1.512500E-7	4.196725E-3
1.513000E-7	4.248113E-3
1.513500E-7	4.258391E-3
1.514000E-7	4.285798E-3
1.514500E-7	4.357742E-3
1.515000E-7	4.419408E-3
1.515500E-7	4.426260E-3
1.516000E-7	4.467370E-3
1.516500E-7	4.570147E-3
1.517000E-7	4.666072E-3
1.517500E-7	4.720886E-3
1.518000E-7	4.799682E-3
1.518500E-7	4.909310E-3
1.519000E-7	5.005235E-3
1.519500E-7	5.070327E-3
1.520000E-7	5.128567E-3
1.520500E-7	5.162826E-3
1.521000E-7	5.162826E-3
1.521500E-7	5.149122E-3
1.522000E-7	5.118289E-3
1.522500E-7	5.049772E-3
1.523000E-7	4.960698E-3
1.523500E-7	4.854496E-3
1.524000E-7	4.731164E-3
1.524500E-7	4.590702E-3
1.525000E-7	4.467370E-3
1.525500E-7	4.354316E-3
1.526000E-7	4.241262E-3
1.526500E-7	4.165892E-3
1.527000E-7	4.131633E-3
1.527500E-7	4.097374E-3
1.528000E-7	4.080245E-3
1.528500E-7	4.100800E-3
1.529000E-7	4.111078E-3
1.529500E-7	4.100800E-3
1.530000E-7	4.128207E-3
1.530500E-7	4.189873E-3
1.531000E-7	4.234410E-3
1.531500E-7	4.261817E-3
1.532000E-7	4.330335E-3
1.532500E-7	4.419408E-3
1.533000E-7	4.494777E-3
1.533500E-7	4.563295E-3
1.534000E-7	4.648942E-3
1.534500E-7	4.720886E-3
1.535000E-7	4.761997E-3
1.535500E-7	4.779126E-3
1.536000E-7	4.772275E-3
1.536500E-7	4.734590E-3
1.537000E-7	4.676350E-3
1.537500E-7	4.604406E-3
1.538000E-7	4.525610E-3
1.538500E-7	4.446815E-3
1.539000E-7	4.378297E-3
1.539500E-7	4.326909E-3
1.540000E-7	4.299502E-3
1.540500E-7	4.296076E-3
1.541000E-7	4.296076E-3
1.541500E-7	4.302928E-3
1.542000E-7	4.309779E-3
1.542500E-7	4.282372E-3
1.543000E-7	4.227558E-3
1.543500E-7	4.196725E-3
1.544000E-7	4.176170E-3
1.544500E-7	4.131633E-3
1.545000E-7	4.090522E-3
1.545500E-7	4.069967E-3
1.546000E-7	4.080245E-3
1.546500E-7	4.114504E-3
1.547000E-7	4.159040E-3
1.547500E-7	4.227558E-3
1.548000E-7	4.340612E-3
1.548500E-7	4.501629E-3
1.549000E-7	4.666072E-3
1.549500E-7	4.809959E-3
1.550000E-7	4.936717E-3
1.550500E-7	5.036068E-3
1.551000E-7	5.104586E-3
1.551500E-7	5.138845E-3
1.552000E-7	5.138845E-3
1.552500E-7	5.104586E-3
1.553000E-7	5.060049E-3
1.553500E-7	5.008661E-3
1.554000E-7	4.960698E-3
1.554500E-7	4.926440E-3
1.555000E-7	4.902458E-3
1.555500E-7	4.851070E-3
1.556000E-7	4.785978E-3
1.556500E-7	4.738016E-3
1.557000E-7	4.696905E-3
1.557500E-7	4.645517E-3
1.558000E-7	4.573573E-3
1.558500E-7	4.474222E-3
1.559000E-7	4.357742E-3
1.559500E-7	4.237836E-3
1.560000E-7	4.131633E-3
1.560500E-7	4.052838E-3
1.561000E-7	4.018579E-3
1.561500E-7	4.035708E-3
1.562000E-7	4.117930E-3
1.562500E-7	4.265243E-3
1.563000E-7	4.433111E-3
1.563500E-7	4.611258E-3
1.564000E-7	4.823663E-3
1.564500E-7	5.049772E-3
1.565000E-7	5.217640E-3
1.565500E-7	5.310139E-3
1.566000E-7	5.378657E-3
1.566500E-7	5.392361E-3
1.567000E-7	5.289584E-3
1.567500E-7	5.114864E-3
1.568000E-7	4.957273E-3
1.568500E-7	4.796256E-3
1.569000E-7	4.604406E-3
1.569500E-7	4.436537E-3
1.570000E-7	4.340612E-3
1.570500E-7	4.272095E-3
1.571000E-7	4.244687E-3
1.571500E-7	4.302928E-3
1.572000E-7	4.419408E-3
1.572500E-7	4.553018E-3
1.573000E-7	4.707183E-3
1.573500E-7	4.875051E-3
1.574000E-7	5.025790E-3
1.574500E-7	5.155974E-3
1.575000E-7	5.255325E-3
1.575500E-7	5.296436E-3
1.576000E-7	5.306713E-3
1.576500E-7	5.313565E-3
1.577000E-7	5.299862E-3
1.577500E-7	5.241621E-3
1.578000E-7	5.162826E-3
1.578500E-7	5.084031E-3
1.579000E-7	5.022364E-3
1.579500E-7	4.977828E-3
1.580000E-7	4.943569E-3
1.580500E-7	4.923014E-3
1.581000E-7	4.923014E-3
1.581500E-7	4.926440E-3
1.582000E-7	4.926440E-3
1.582500E-7	4.957273E-3
1.583000E-7	4.977828E-3
1.583500E-7	4.953847E-3
1.584000E-7	4.919588E-3
1.584500E-7	4.919588E-3
1.585000E-7	4.885329E-3
1.585500E-7	4.809959E-3
1.586000E-7	4.758571E-3
1.586500E-7	4.707183E-3
1.587000E-7	4.631813E-3
1.587500E-7	4.594128E-3
1.588000E-7	4.621535E-3
1.588500E-7	4.642091E-3
1.589000E-7	4.635239E-3
1.589500E-7	4.672924E-3
1.590000E-7	4.741442E-3
1.590500E-7	4.785978E-3
1.591000E-7	4.799682E-3
1.591500E-7	4.796256E-3
1.592000E-7	4.792830E-3
1.592500E-7	4.806533E-3
1.593000E-7	4.785978E-3
1.593500E-7	4.693479E-3
1.594000E-7	4.576999E-3
1.594500E-7	4.474222E-3
1.595000E-7	4.364594E-3
1.595500E-7	4.234410E-3
1.596000E-7	4.121355E-3
1.596500E-7	4.039134E-3
1.597000E-7	3.956913E-3
1.597500E-7	3.895247E-3
1.598000E-7	3.888395E-3
1.598500E-7	3.932931E-3
1.599000E-7	3.984320E-3
1.599500E-7	4.042560E-3
1.600000E-7	4.145337E-3
1.600500E-7	4.289224E-3
1.601000E-7	4.422834E-3
1.601500E-7	4.532462E-3
1.602000E-7	4.631813E-3
1.602500E-7	4.707183E-3
1.603000E-7	4.734590E-3
1.603500E-7	4.720886E-3
1.604000E-7	4.679775E-3
1.604500E-7	4.614684E-3
1.605000E-7	4.546166E-3
1.605500E-7	4.481074E-3
1.606000E-7	4.405704E-3
1.606500E-7	4.344038E-3
1.607000E-7	4.323483E-3
1.607500E-7	4.326909E-3
1.608000E-7	4.354316E-3
1.608500E-7	4.426260E-3
1.609000E-7	4.529036E-3
1.609500E-7	4.611258E-3
1.610000E-7	4.679775E-3
1.610500E-7	4.751719E-3
1.611000E-7	4.816811E-3
1.611500E-7	4.827089E-3
1.612000E-7	4.806533E-3
1.612500E-7	4.785978E-3
1.613000E-7	4.751719E-3
1.613500E-7	4.676350E-3
1.614000E-7	4.556443E-3
1.614500E-7	4.426260E-3
1.615000E-7	4.285798E-3
1.615500E-7	4.135059E-3
1.616000E-7	3.987746E-3
1.616500E-7	3.878117E-3
1.617000E-7	3.813025E-3
1.617500E-7	3.782192E-3
1.618000E-7	3.806174E-3
1.618500E-7	3.902098E-3
1.619000E-7	4.032282E-3
1.619500E-7	4.162466E-3
1.620000E-7	4.344038E-3
1.620500E-7	4.576999E-3
1.621000E-7	4.768849E-3
1.621500E-7	4.923014E-3
1.622000E-7	5.073753E-3
1.622500E-7	5.173104E-3
1.623000E-7	5.159400E-3
1.623500E-7	5.094308E-3
1.624000E-7	4.991531E-3
1.624500E-7	4.803108E-3
1.625000E-7	4.573573E-3
1.625500E-7	4.374871E-3
1.626000E-7	4.172744E-3
1.626500E-7	3.974042E-3
1.627000E-7	3.833581E-3
1.627500E-7	3.737656E-3
1.628000E-7	3.679416E-3
1.628500E-7	3.717100E-3
1.629000E-7	3.816451E-3
1.629500E-7	3.902098E-3
1.630000E-7	4.035708E-3
1.630500E-7	4.227558E-3
1.631000E-7	4.357742E-3
1.631500E-7	4.388575E-3
1.632000E-7	4.409130E-3
1.632500E-7	4.419408E-3
1.633000E-7	4.337186E-3
1.633500E-7	4.207003E-3
1.634000E-7	4.104226E-3
1.634500E-7	4.028856E-3
1.635000E-7	3.943209E-3
1.635500E-7	3.874691E-3
1.636000E-7	3.854136E-3
1.636500E-7	3.864414E-3
1.637000E-7	3.871265E-3
1.637500E-7	3.881543E-3
1.638000E-7	3.915802E-3
1.638500E-7	3.963764E-3
1.639000E-7	4.025430E-3
1.639500E-7	4.100800E-3
1.640000E-7	4.165892E-3
1.640500E-7	4.227558E-3
1.641000E-7	4.302928E-3
1.641500E-7	4.381723E-3
1.642000E-7	4.477648E-3
1.642500E-7	4.618109E-3
1.643000E-7	4.779126E-3
1.643500E-7	4.933291E-3
1.644000E-7	5.097734E-3
1.644500E-7	5.265603E-3
1.645000E-7	5.395787E-3
1.645500E-7	5.481434E-3
1.646000E-7	5.512267E-3
1.646500E-7	5.460878E-3
1.647000E-7	5.368379E-3
1.647500E-7	5.251899E-3
1.648000E-7	5.080605E-3
1.648500E-7	4.868199E-3
1.649000E-7	4.662646E-3
1.649500E-7	4.484500E-3
1.650000E-7	4.333761E-3
1.650500E-7	4.241262E-3
1.651000E-7	4.210429E-3
1.651500E-7	4.224132E-3
1.652000E-7	4.316631E-3
1.652500E-7	4.470796E-3
1.653000E-7	4.631813E-3
1.653500E-7	4.779126E-3
1.654000E-7	4.905884E-3
1.654500E-7	4.988106E-3
1.655000E-7	5.012087E-3
1.655500E-7	4.991531E-3
1.656000E-7	4.899032E-3
1.656500E-7	4.772275E-3
1.657000E-7	4.676350E-3
1.657500E-7	4.594128E-3
1.658000E-7	4.484500E-3
1.658500E-7	4.422834E-3
1.659000E-7	4.436537E-3
1.659500E-7	4.450241E-3
1.660000E-7	4.474222E-3
1.660500E-7	4.563295E-3
1.661000E-7	4.686627E-3
1.661500E-7	4.785978E-3
1.662000E-7	4.885329E-3
1.662500E-7	4.988106E-3
1.663000E-7	5.022364E-3
1.663500E-7	5.022364E-3
1.664000E-7	5.046346E-3
1.664500E-7	5.060049E-3
1.665000E-7	5.032642E-3
1.665500E-7	5.015513E-3
1.666000E-7	5.046346E-3
1.666500E-7	5.046346E-3
1.667000E-7	5.008661E-3
1.667500E-7	4.984680E-3
1.668000E-7	4.984680E-3
1.668500E-7	4.964124E-3
1.669000E-7	4.929865E-3
1.669500E-7	4.878477E-3
1.670000E-7	4.823663E-3
1.670500E-7	4.782552E-3
1.671000E-7	4.772275E-3
1.671500E-7	4.775700E-3
1.672000E-7	4.792830E-3
1.672500E-7	4.813385E-3
1.673000E-7	4.820237E-3
1.673500E-7	4.830515E-3
1.674000E-7	4.861348E-3
1.674500E-7	4.895607E-3
1.675000E-7	4.919588E-3
1.675500E-7	4.916162E-3
1.676000E-7	4.861348E-3
1.676500E-7	4.772275E-3
1.677000E-7	4.693479E-3
1.677500E-7	4.611258E-3
1.678000E-7	4.487926E-3
1.678500E-7	4.340612E-3
1.679000E-7	4.213854E-3
1.679500E-7	4.104226E-3
1.680000E-7	3.977468E-3
1.680500E-7	3.867840E-3
1.681000E-7	3.795896E-3
1.681500E-7	3.754785E-3
1.682000E-7	3.744507E-3
1.682500E-7	3.758211E-3
1.683000E-7	3.795896E-3
1.683500E-7	3.840432E-3
1.684000E-7	3.902098E-3
1.684500E-7	4.004875E-3
1.685000E-7	4.104226E-3
1.685500E-7	4.169318E-3
1.686000E-7	4.224132E-3
1.686500E-7	4.302928E-3
1.687000E-7	4.368019E-3
1.687500E-7	4.374871E-3
1.688000E-7	4.388575E-3
1.688500E-7	4.443389E-3
1.689000E-7	4.491352E-3
1.689500E-7	4.525610E-3
1.690000E-7	4.583851E-3
1.690500E-7	4.672924E-3
1.691000E-7	4.748293E-3
1.691500E-7	4.809959E-3
1.692000E-7	4.851070E-3
1.692500E-7	4.861348E-3
1.693000E-7	4.854496E-3
1.693500E-7	4.830515E-3
1.694000E-7	4.792830E-3
1.694500E-7	4.727738E-3
1.695000E-7	4.642091E-3
1.695500E-7	4.553018E-3
1.696000E-7	4.481074E-3
1.696500E-7	4.436537E-3
1.697000E-7	4.419408E-3
1.697500E-7	4.443389E-3
1.698000E-7	4.501629E-3
1.698500E-7	4.587276E-3
1.699000E-7	4.679775E-3
1.699500E-7	4.761997E-3
1.700000E-7	4.799682E-3
1.700500E-7	4.806533E-3
1.701000E-7	4.775700E-3
1.701500E-7	4.690053E-3
1.702000E-7	4.573573E-3
1.702500E-7	4.460519E-3
1.703000E-7	4.326909E-3
1.703500E-7	4.172744E-3
1.704000E-7	4.066541E-3
1.704500E-7	4.004875E-3
1.705000E-7	3.953487E-3
1.705500E-7	3.943209E-3
1.706000E-7	4.015153E-3
1.706500E-7	4.117930E-3
1.707000E-7	4.217280E-3
1.707500E-7	4.333761E-3
1.708000E-7	4.457093E-3
1.708500E-7	4.542740E-3
1.709000E-7	4.604406E-3
1.709500E-7	4.648942E-3
1.710000E-7	4.659220E-3
1.710500E-7	4.662646E-3
1.711000E-7	4.679775E-3
1.711500E-7	4.690053E-3
1.712000E-7	4.693479E-3
1.712500E-7	4.717460E-3
1.713000E-7	4.724312E-3
1.713500E-7	4.724312E-3
1.714000E-7	4.768849E-3
1.714500E-7	4.827089E-3
1.715000E-7	4.851070E-3
1.715500E-7	4.875051E-3
1.716000E-7	4.923014E-3
1.716500E-7	4.953847E-3
1.717000E-7	4.946995E-3
1.717500E-7	4.905884E-3
1.718000E-7	4.830515E-3
1.718500E-7	4.744867E-3
1.719000E-7	4.693479E-3
1.719500E-7	4.642091E-3
1.720000E-7	4.559869E-3
1.720500E-7	4.515333E-3
1.721000E-7	4.556443E-3
1.721500E-7	4.611258E-3
1.722000E-7	4.642091E-3
1.722500E-7	4.707183E-3
1.723000E-7	4.761997E-3
1.723500E-7	4.765423E-3
1.724000E-7	4.768849E-3
1.724500E-7	4.779126E-3
1.725000E-7	4.738016E-3
1.725500E-7	4.659220E-3
1.726000E-7	4.600980E-3
1.726500E-7	4.532462E-3
1.727000E-7	4.443389E-3
1.727500E-7	4.385149E-3
1.728000E-7	4.364594E-3
1.728500E-7	4.364594E-3
1.729000E-7	4.374871E-3
1.729500E-7	4.395427E-3
1.730000E-7	4.433111E-3
1.730500E-7	4.498203E-3
1.731000E-7	4.549592E-3
1.731500E-7	4.553018E-3
1.732000E-7	4.563295E-3
1.732500E-7	4.573573E-3
1.733000E-7	4.508481E-3
1.733500E-7	4.412556E-3
1.734000E-7	4.357742E-3
1.734500E-7	4.320057E-3
1.735000E-7	4.251539E-3
1.735500E-7	4.203577E-3
1.736000E-7	4.186447E-3
1.736500E-7	4.169318E-3
1.737000E-7	4.148763E-3
1.737500E-7	4.165892E-3
1.738000E-7	4.189873E-3
1.738500E-7	4.213854E-3
1.739000E-7	4.241262E-3
1.739500E-7	4.234410E-3
1.740000E-7	4.210429E-3
1.740500E-7	4.203577E-3
1.741000E-7	4.189873E-3
1.741500E-7	4.135059E-3
1.742000E-7	4.104226E-3
1.742500E-7	4.145337E-3
1.743000E-7	4.196725E-3
1.743500E-7	4.237836E-3
1.744000E-7	4.302928E-3
1.744500E-7	4.405704E-3
1.745000E-7	4.501629E-3
1.745500E-7	4.604406E-3
1.746000E-7	4.710608E-3
1.746500E-7	4.816811E-3
1.747000E-7	4.919588E-3
1.747500E-7	4.994957E-3
1.748000E-7	5.008661E-3
1.748500E-7	5.032642E-3
1.749000E-7	5.066901E-3
1.749500E-7	5.036068E-3
1.750000E-7	4.957273E-3
1.750500E-7	4.899032E-3
1.751000E-7	4.827089E-3
1.751500E-7	4.683201E-3
1.752000E-7	4.546166E-3
1.752500E-7	4.470796E-3
1.753000E-7	4.385149E-3
1.753500E-7	4.265243E-3
1.754000E-7	4.176170E-3
1.754500E-7	4.117930E-3
1.755000E-7	4.049412E-3
1.755500E-7	3.987746E-3
1.756000E-7	3.977468E-3
1.756500E-7	4.018579E-3
1.757000E-7	4.087097E-3
1.757500E-7	4.172744E-3
1.758000E-7	4.275520E-3
1.758500E-7	4.398852E-3
1.759000E-7	4.525610E-3
1.759500E-7	4.624961E-3
1.760000E-7	4.703757E-3
1.760500E-7	4.775700E-3
1.761000E-7	4.816811E-3
1.761500E-7	4.813385E-3
1.762000E-7	4.803108E-3
1.762500E-7	4.796256E-3
1.763000E-7	4.775700E-3
1.763500E-7	4.751719E-3
1.764000E-7	4.758571E-3
1.764500E-7	4.782552E-3
1.765000E-7	4.796256E-3
1.765500E-7	4.809959E-3
1.766000E-7	4.844218E-3
1.766500E-7	4.875051E-3
1.767000E-7	4.878477E-3
1.767500E-7	4.871625E-3
1.768000E-7	4.830515E-3
1.768500E-7	4.731164E-3
1.769000E-7	4.611258E-3
1.769500E-7	4.501629E-3
1.770000E-7	4.385149E-3
1.770500E-7	4.278946E-3
1.771000E-7	4.224132E-3
1.771500E-7	4.193299E-3
1.772000E-7	4.183021E-3
1.772500E-7	4.230984E-3
1.773000E-7	4.326909E-3
1.773500E-7	4.388575E-3
1.774000E-7	4.443389E-3
1.774500E-7	4.518759E-3
1.775000E-7	4.559869E-3
1.775500E-7	4.525610E-3
1.776000E-7	4.453667E-3
1.776500E-7	4.374871E-3
1.777000E-7	4.244687E-3
1.777500E-7	4.080245E-3
1.778000E-7	3.946635E-3
1.778500E-7	3.860988E-3
1.779000E-7	3.809599E-3
1.779500E-7	3.813025E-3
1.780000E-7	3.891821E-3
1.780500E-7	4.035708E-3
1.781000E-7	4.230984E-3
1.781500E-7	4.450241E-3
1.782000E-7	4.683201E-3
1.782500E-7	4.895607E-3
1.783000E-7	5.066901E-3
1.783500E-7	5.197085E-3
1.784000E-7	5.303287E-3
1.784500E-7	5.364954E-3
1.785000E-7	5.340972E-3
1.785500E-7	5.272454E-3
1.786000E-7	5.200511E-3
1.786500E-7	5.111438E-3
1.787000E-7	4.984680E-3
1.787500E-7	4.851070E-3
1.788000E-7	4.744867E-3
1.788500E-7	4.662646E-3
1.789000E-7	4.607832E-3
1.789500E-7	4.570147E-3
1.790000E-7	4.529036E-3
1.790500E-7	4.487926E-3
1.791000E-7	4.484500E-3
1.791500E-7	4.511907E-3
1.792000E-7	4.563295E-3
1.792500E-7	4.635239E-3
1.793000E-7	4.724312E-3
1.793500E-7	4.813385E-3
1.794000E-7	4.950421E-3
1.794500E-7	5.121715E-3
1.795000E-7	5.248473E-3
1.795500E-7	5.306713E-3
1.796000E-7	5.351250E-3
1.796500E-7	5.395787E-3
1.797000E-7	5.368379E-3
1.797500E-7	5.262177E-3
1.798000E-7	5.128567E-3
1.798500E-7	4.991531E-3
1.799000E-7	4.844218E-3
1.799500E-7	4.669498E-3
1.800000E-7	4.498203E-3
1.800500E-7	4.378297E-3
1.801000E-7	4.316631E-3
1.801500E-7	4.265243E-3
1.802000E-7	4.241262E-3
1.802500E-7	4.285798E-3
1.803000E-7	4.347464E-3
1.803500E-7	4.381723E-3
1.804000E-7	4.433111E-3
1.804500E-7	4.484500E-3
1.805000E-7	4.467370E-3
1.805500E-7	4.429686E-3
1.806000E-7	4.402278E-3
1.806500E-7	4.364594E-3
1.807000E-7	4.292650E-3
1.807500E-7	4.237836E-3
1.808000E-7	4.203577E-3
1.808500E-7	4.189873E-3
1.809000E-7	4.207003E-3
1.809500E-7	4.275520E-3
1.810000E-7	4.381723E-3
1.810500E-7	4.505055E-3
1.811000E-7	4.635239E-3
1.811500E-7	4.751719E-3
1.812000E-7	4.847644E-3
1.812500E-7	4.909310E-3
1.813000E-7	4.926440E-3
1.813500E-7	4.885329E-3
1.814000E-7	4.813385E-3
1.814500E-7	4.734590E-3
1.815000E-7	4.638665E-3
1.815500E-7	4.511907E-3
1.816000E-7	4.388575E-3
1.816500E-7	4.296076E-3
1.817000E-7	4.230984E-3
1.817500E-7	4.193299E-3
1.818000E-7	4.230984E-3
1.818500E-7	4.340612E-3
1.819000E-7	4.443389E-3
1.819500E-7	4.508481E-3
1.820000E-7	4.556443E-3
1.820500E-7	4.580425E-3
1.821000E-7	4.559869E-3
1.821500E-7	4.511907E-3
1.822000E-7	4.409130E-3
1.822500E-7	4.265243E-3
1.823000E-7	4.124781E-3
1.823500E-7	4.004875E-3
1.824000E-7	3.888395E-3
1.824500E-7	3.833581E-3
1.825000E-7	3.864414E-3
1.825500E-7	3.943209E-3
1.826000E-7	4.069967E-3
1.826500E-7	4.278946E-3
1.827000E-7	4.522185E-3
1.827500E-7	4.731164E-3
1.828000E-7	4.933291E-3
1.828500E-7	5.125141E-3
1.829000E-7	5.238196E-3
1.829500E-7	5.265603E-3
1.830000E-7	5.248473E-3
1.830500E-7	5.193659E-3
1.831000E-7	5.070327E-3
1.831500E-7	4.926440E-3
1.832000E-7	4.806533E-3
1.832500E-7	4.700331E-3
1.833000E-7	4.597554E-3
1.833500E-7	4.529036E-3
1.834000E-7	4.505055E-3
1.834500E-7	4.529036E-3
1.835000E-7	4.583851E-3
1.835500E-7	4.631813E-3
1.836000E-7	4.652368E-3
1.836500E-7	4.645517E-3
1.837000E-7	4.624961E-3
1.837500E-7	4.590702E-3
1.838000E-7	4.539314E-3
1.838500E-7	4.474222E-3
1.839000E-7	4.409130E-3
1.839500E-7	4.368019E-3
1.840000E-7	4.361168E-3
1.840500E-7	4.371445E-3
1.841000E-7	4.398852E-3
1.841500E-7	4.436537E-3
1.842000E-7	4.477648E-3
1.842500E-7	4.529036E-3
1.843000E-7	4.590702E-3
1.843500E-7	4.621535E-3
1.844000E-7	4.642091E-3
1.844500E-7	4.679775E-3
1.845000E-7	4.693479E-3
1.845500E-7	4.659220E-3
1.846000E-7	4.611258E-3
1.846500E-7	4.576999E-3
1.847000E-7	4.539314E-3
1.847500E-7	4.532462E-3
1.848000E-7	4.587276E-3
1.848500E-7	4.669498E-3
1.849000E-7	4.744867E-3
1.849500E-7	4.833941E-3
1.850000E-7	4.957273E-3
1.850500E-7	5.063475E-3
1.851000E-7	5.121715E-3
1.851500E-7	5.152548E-3
1.852000E-7	5.183381E-3
1.852500E-7	5.207363E-3
1.853000E-7	5.200511E-3
1.853500E-7	5.159400E-3
1.854000E-7	5.087456E-3
1.854500E-7	4.998383E-3
1.855000E-7	4.905884E-3
1.855500E-7	4.847644E-3
1.856000E-7	4.809959E-3
1.856500E-7	4.761997E-3
1.857000E-7	4.720886E-3
1.857500E-7	4.727738E-3
1.858000E-7	4.755145E-3
1.858500E-7	4.785978E-3
1.859000E-7	4.847644E-3
1.859500E-7	4.923014E-3
1.860000E-7	4.974402E-3
1.860500E-7	4.998383E-3
1.861000E-7	4.994957E-3
1.861500E-7	4.923014E-3
1.862000E-7	4.803108E-3
1.862500E-7	4.669498E-3
1.863000E-7	4.494777E-3
1.863500E-7	4.282372E-3
1.864000E-7	4.087097E-3
1.864500E-7	3.936357E-3
1.865000E-7	3.809599E-3
1.865500E-7	3.737656E-3
1.866000E-7	3.758211E-3
1.866500E-7	3.833581E-3
1.867000E-7	3.943209E-3
1.867500E-7	4.083671E-3
1.868000E-7	4.227558E-3
1.868500E-7	4.361168E-3
1.869000E-7	4.481074E-3
1.869500E-7	4.570147E-3
1.870000E-7	4.607832E-3
1.870500E-7	4.600980E-3
1.871000E-7	4.546166E-3
1.871500E-7	4.450241E-3
1.872000E-7	4.361168E-3
1.872500E-7	4.302928E-3
1.873000E-7	4.230984E-3
1.873500E-7	4.152188E-3
1.874000E-7	4.124781E-3
1.874500E-7	4.148763E-3
1.875000E-7	4.176170E-3
1.875500E-7	4.213854E-3
1.876000E-7	4.261817E-3
1.876500E-7	4.316631E-3
1.877000E-7	4.364594E-3
1.877500E-7	4.405704E-3
1.878000E-7	4.429686E-3
1.878500E-7	4.463944E-3
1.879000E-7	4.511907E-3
1.879500E-7	4.518759E-3
1.880000E-7	4.505055E-3
1.880500E-7	4.518759E-3
1.881000E-7	4.535888E-3
1.881500E-7	4.494777E-3
1.882000E-7	4.439963E-3
1.882500E-7	4.419408E-3
1.883000E-7	4.398852E-3
1.883500E-7	4.361168E-3
1.884000E-7	4.344038E-3
1.884500E-7	4.333761E-3
1.885000E-7	4.326909E-3
1.885500E-7	4.350890E-3
1.886000E-7	4.388575E-3
1.886500E-7	4.402278E-3
1.887000E-7	4.433111E-3
1.887500E-7	4.491352E-3
1.888000E-7	4.532462E-3
1.888500E-7	4.553018E-3
1.889000E-7	4.597554E-3
1.889500E-7	4.655794E-3
1.890000E-7	4.710608E-3
1.890500E-7	4.758571E-3
1.891000E-7	4.792830E-3
1.891500E-7	4.813385E-3
1.892000E-7	4.847644E-3
1.892500E-7	4.902458E-3
1.893000E-7	4.933291E-3
1.893500E-7	4.926440E-3
1.894000E-7	4.888755E-3
1.894500E-7	4.840792E-3
1.895000E-7	4.806533E-3
1.895500E-7	4.755145E-3
1.896000E-7	4.686627E-3
1.896500E-7	4.655794E-3
1.897000E-7	4.659220E-3
1.897500E-7	4.635239E-3
1.898000E-7	4.614684E-3
1.898500E-7	4.659220E-3
1.899000E-7	4.710608E-3
1.899500E-7	4.717460E-3
1.900000E-7	4.731164E-3
1.900500E-7	4.761997E-3
1.901000E-7	4.765423E-3
1.901500E-7	4.748293E-3
1.902000E-7	4.755145E-3
1.902500E-7	4.772275E-3
1.903000E-7	4.775700E-3
1.903500E-7	4.779126E-3
1.904000E-7	4.792830E-3
1.904500E-7	4.816811E-3
1.905000E-7	4.854496E-3
1.905500E-7	4.888755E-3
1.906000E-7	4.912736E-3
1.906500E-7	4.946995E-3
1.907000E-7	4.991531E-3
1.907500E-7	5.022364E-3
1.908000E-7	5.042920E-3
1.908500E-7	5.066901E-3
1.909000E-7	5.053198E-3
1.909500E-7	4.991531E-3
1.910000E-7	4.929865E-3
1.910500E-7	4.885329E-3
1.911000E-7	4.796256E-3
1.911500E-7	4.652368E-3
1.912000E-7	4.518759E-3
1.912500E-7	4.385149E-3
1.913000E-7	4.217280E-3
1.913500E-7	4.042560E-3
1.914000E-7	3.902098E-3
1.914500E-7	3.802748E-3
1.915000E-7	3.730804E-3
1.915500E-7	3.665712E-3
1.916000E-7	3.628027E-3
1.916500E-7	3.641731E-3
1.917000E-7	3.696545E-3
1.917500E-7	3.765063E-3
1.918000E-7	3.854136E-3
1.918500E-7	3.991172E-3
1.919000E-7	4.121355E-3
1.919500E-7	4.224132E-3
1.920000E-7	4.323483E-3
1.920500E-7	4.419408E-3
1.921000E-7	4.494777E-3
1.921500E-7	4.570147E-3
1.922000E-7	4.631813E-3
1.922500E-7	4.648942E-3
1.923000E-7	4.655794E-3
1.923500E-7	4.659220E-3
1.924000E-7	4.638665E-3
1.924500E-7	4.642091E-3
1.925000E-7	4.683201E-3
1.925500E-7	4.696905E-3
1.926000E-7	4.662646E-3
1.926500E-7	4.648942E-3
1.927000E-7	4.648942E-3
1.927500E-7	4.621535E-3
1.928000E-7	4.594128E-3
1.928500E-7	4.600980E-3
1.929000E-7	4.611258E-3
1.929500E-7	4.635239E-3
1.930000E-7	4.707183E-3
1.930500E-7	4.782552E-3
1.931000E-7	4.837366E-3
1.931500E-7	4.895607E-3
1.932000E-7	4.974402E-3
1.932500E-7	5.053198E-3
1.933000E-7	5.125141E-3
1.933500E-7	5.142271E-3
1.934000E-7	5.087456E-3
1.934500E-7	5.036068E-3
1.935000E-7	4.994957E-3
1.935500E-7	4.895607E-3
1.936000E-7	4.741442E-3
1.936500E-7	4.583851E-3
1.937000E-7	4.426260E-3
1.937500E-7	4.275520E-3
1.938000E-7	4.169318E-3
1.938500E-7	4.097374E-3
1.939000E-7	4.035708E-3
1.939500E-7	4.035708E-3
1.940000E-7	4.104226E-3
1.940500E-7	4.183021E-3
1.941000E-7	4.258391E-3
1.941500E-7	4.340612E-3
1.942000E-7	4.457093E-3
1.942500E-7	4.597554E-3
1.943000E-7	4.727738E-3
1.943500E-7	4.820237E-3
1.944000E-7	4.919588E-3
1.944500E-7	5.066901E-3
1.945000E-7	5.203937E-3
1.945500E-7	5.286158E-3
1.946000E-7	5.351250E-3
1.946500E-7	5.436897E-3
1.947000E-7	5.484860E-3
1.947500E-7	5.467730E-3
1.948000E-7	5.457453E-3
1.948500E-7	5.450601E-3
1.949000E-7	5.385509E-3
1.949500E-7	5.286158E-3
1.950000E-7	5.179955E-3
1.950500E-7	5.073753E-3
1.951000E-7	4.946995E-3
1.951500E-7	4.833941E-3
1.952000E-7	4.744867E-3
1.952500E-7	4.648942E-3
1.953000E-7	4.556443E-3
1.953500E-7	4.484500E-3
1.954000E-7	4.467370E-3
1.954500E-7	4.487926E-3
1.955000E-7	4.501629E-3
1.955500E-7	4.515333E-3
1.956000E-7	4.570147E-3
1.956500E-7	4.666072E-3
1.957000E-7	4.741442E-3
1.957500E-7	4.796256E-3
1.958000E-7	4.851070E-3
1.958500E-7	4.878477E-3
1.959000E-7	4.895607E-3
1.959500E-7	4.926440E-3
1.960000E-7	4.964124E-3
1.960500E-7	4.988106E-3
1.961000E-7	5.018939E-3
1.961500E-7	5.060049E-3
1.962000E-7	5.080605E-3
1.962500E-7	5.094308E-3
1.963000E-7	5.090882E-3
1.963500E-7	5.046346E-3
1.964000E-7	4.970976E-3
1.964500E-7	4.912736E-3
1.965000E-7	4.851070E-3
1.965500E-7	4.768849E-3
1.966000E-7	4.710608E-3
1.966500E-7	4.690053E-3
1.967000E-7	4.669498E-3
1.967500E-7	4.648942E-3
1.968000E-7	4.648942E-3
1.968500E-7	4.659220E-3
1.969000E-7	4.696905E-3
1.969500E-7	4.785978E-3
1.970000E-7	4.881903E-3
1.970500E-7	4.950421E-3
1.971000E-7	5.015513E-3
1.971500E-7	5.094308E-3
1.972000E-7	5.166252E-3
1.972500E-7	5.224492E-3
1.973000E-7	5.272454E-3
1.973500E-7	5.313565E-3
1.974000E-7	5.344398E-3
1.974500E-7	5.364954E-3
1.975000E-7	5.388935E-3
1.975500E-7	5.436897E-3
1.976000E-7	5.474582E-3
1.976500E-7	5.484860E-3
1.977000E-7	5.471156E-3
1.977500E-7	5.471156E-3
1.978000E-7	5.478008E-3
1.978500E-7	5.457453E-3
1.979000E-7	5.412916E-3
1.979500E-7	5.340972E-3
1.980000E-7	5.272454E-3
1.980500E-7	5.217640E-3
1.981000E-7	5.179955E-3
1.981500E-7	5.125141E-3
1.982000E-7	5.046346E-3
1.982500E-7	4.977828E-3
1.983000E-7	4.926440E-3
1.983500E-7	4.885329E-3
1.984000E-7	4.851070E-3
1.984500E-7	4.809959E-3
1.985000E-7	4.755145E-3
1.985500E-7	4.679775E-3
1.986000E-7	4.594128E-3
1.986500E-7	4.532462E-3
1.987000E-7	4.505055E-3
1.987500E-7	4.457093E-3
1.988000E-7	4.381723E-3
1.988500E-7	4.354316E-3
1.989000E-7	4.371445E-3
1.989500E-7	4.398852E-3
1.990000E-7	4.446815E-3
1.990500E-7	4.539314E-3
1.991000E-7	4.611258E-3
1.991500E-7	4.645517E-3
1.992000E-7	4.714034E-3
1.992500E-7	4.806533E-3
1.993000E-7	4.823663E-3
1.993500E-7	4.792830E-3
1.994000E-7	4.789404E-3
1.994500E-7	4.792830E-3
1.995000E-7	4.714034E-3
1.995500E-7	4.611258E-3
1.996000E-7	4.580425E-3
1.996500E-7	4.583851E-3
1.997000E-7	4.556443E-3
1.997500E-7	4.498203E-3
1.998000E-7	4.467370E-3
1.998500E-7	4.457093E-3
1.999000E-7	4.436537E-3
1.999500E-7	4.405704E-3
2.000000E-7	4.388575E-3
