Study Name	Beam_042_10_RT_lecroy
Sample Name	2025-09-10
Run Name	spot00
Operator	Elena
Date	9/10/2025
Time	15:49
Sign	FIX
Grating Spacing	03.40um
Channel	3
Number Traces	2000
Files in Batch	6
Batch Number	26
dt	50.000001E-12
time stamp (ms)	3:54:53 PM
	
Time	Amplitude
0.000000E+0	3.597450E-4
5.000000E-11	1.969992E-4
1.000000E-10	1.199090E-4
1.500000E-10	2.568778E-5
2.000000E-10	-8.574505E-6
2.500000E-10	9.421234E-5
3.000000E-10	2.997860E-4
3.500000E-10	5.053597E-4
4.000000E-10	6.852367E-4
4.500000E-10	8.137202E-4
5.000000E-10	9.422038E-4
5.500000E-10	1.096384E-3
6.000000E-10	1.190605E-3
6.500000E-10	1.216302E-3
7.000000E-10	1.156343E-3
7.500000E-10	1.062122E-3
8.000000E-10	1.002163E-3
8.500000E-10	9.679005E-4
9.000000E-10	8.651137E-4
9.500000E-10	7.623268E-4
1.000000E-9	6.852367E-4
1.050000E-9	5.567531E-4
1.100000E-9	3.940073E-4
1.150000E-9	2.569582E-4
1.200000E-9	1.199090E-4
1.250000E-9	-5.140236E-5
1.300000E-9	-1.370581E-4
1.350000E-9	-1.970170E-4
1.400000E-9	-2.655416E-4
1.450000E-9	-2.227138E-4
1.500000E-9	-1.199269E-4
1.550000E-9	-1.199269E-4
1.600000E-9	-1.113613E-4
1.650000E-9	2.568778E-5
1.700000E-9	1.027779E-4
1.750000E-9	7.708120E-5
1.800000E-9	4.281892E-5
1.850000E-9	-2.570565E-5
1.900000E-9	-2.141482E-4
1.950000E-9	-4.282874E-4
2.000000E-9	-6.852545E-4
2.050000E-9	-9.079594E-4
2.100000E-9	-9.850495E-4
2.150000E-9	-1.036443E-3
2.200000E-9	-1.070705E-3
2.250000E-9	-8.736971E-4
2.300000E-9	-4.968120E-4
2.350000E-9	-1.970170E-4
2.400000E-9	1.712221E-5
2.450000E-9	2.483926E-4
2.500000E-9	3.683106E-4
2.550000E-9	2.912205E-4
2.600000E-9	1.199090E-4
2.650000E-9	-8.566464E-5
2.700000E-9	-3.169350E-4
2.750000E-9	-6.509923E-4
2.800000E-9	-1.087836E-3
2.850000E-9	-1.473287E-3
2.900000E-9	-1.593205E-3
2.950000E-9	-1.456156E-3
3.000000E-9	-1.216320E-3
3.050000E-9	-8.993938E-4
3.100000E-9	-4.282874E-4
3.150000E-9	5.995006E-5
3.200000E-9	3.854417E-4
3.250000E-9	6.852367E-4
3.300000E-9	1.079253E-3
3.350000E-9	1.336220E-3
3.400000E-9	1.250564E-3
3.450000E-9	1.027859E-3
3.500000E-9	8.222858E-4
3.550000E-9	5.310564E-4
3.600000E-9	2.141303E-4
3.650000E-9	-2.570565E-5
3.700000E-9	-2.398449E-4
3.750000E-9	-5.225087E-4
3.800000E-9	-7.366480E-4
3.850000E-9	-6.766890E-4
3.900000E-9	-4.711153E-4
3.950000E-9	-3.597629E-4
4.000000E-9	-3.940252E-4
4.050000E-9	-4.197219E-4
4.100000E-9	-3.683285E-4
4.150000E-9	-3.597629E-4
4.200000E-9	-3.940252E-4
4.250000E-9	-4.025907E-4
4.300000E-9	-4.968120E-4
4.350000E-9	-7.109513E-4
4.400000E-9	-8.822627E-4
4.450000E-9	-9.507872E-4
4.500000E-9	-9.422217E-4
4.550000E-9	-8.993938E-4
4.600000E-9	-8.480004E-4
4.650000E-9	-8.137381E-4
4.700000E-9	-6.766890E-4
4.750000E-9	-4.539842E-4
4.800000E-9	-2.569760E-4
4.850000E-9	-1.113613E-4
4.900000E-9	-8.934876E-9
4.950000E-9	-8.934876E-9
5.000000E-9	-7.709907E-5
5.050000E-9	-1.713203E-4
5.100000E-9	-3.083695E-4
5.150000E-9	-4.625497E-4
5.200000E-9	-5.139431E-4
5.250000E-9	-4.711153E-4
5.300000E-9	-4.454186E-4
5.350000E-9	-3.511973E-4
5.400000E-9	-1.456236E-4
5.450000E-9	1.027779E-4
5.500000E-9	3.511794E-4
5.550000E-9	5.653187E-4
5.600000E-9	6.081465E-4
5.650000E-9	5.995810E-4
5.700000E-9	6.252777E-4
5.750000E-9	5.139253E-4
5.800000E-9	2.312615E-4
5.850000E-9	-8.934876E-9
5.900000E-9	-1.027958E-4
5.950000E-9	-2.484105E-4
6.000000E-9	-3.511973E-4
6.050000E-9	-3.426317E-4
6.100000E-9	-2.912383E-4
6.150000E-9	-2.312793E-4
6.200000E-9	-8.566464E-5
6.250000E-9	1.541713E-4
6.300000E-9	4.197040E-4
6.350000E-9	6.766711E-4
6.400000E-9	8.908104E-4
6.450000E-9	1.062122E-3
6.500000E-9	1.233433E-3
6.550000E-9	1.396179E-3
6.600000E-9	1.533228E-3
6.650000E-9	1.644581E-3
6.700000E-9	1.713105E-3
6.750000E-9	1.670277E-3
6.800000E-9	1.567490E-3
6.850000E-9	1.524663E-3
6.900000E-9	1.481835E-3
6.950000E-9	1.199171E-3
7.000000E-9	7.366301E-4
7.050000E-9	3.511794E-4
7.100000E-9	-8.574505E-6
7.150000E-9	-4.625497E-4
7.200000E-9	-8.308692E-4
7.250000E-9	-9.850495E-4
7.300000E-9	-1.096402E-3
7.350000E-9	-1.267713E-3
7.400000E-9	-1.387631E-3
7.450000E-9	-1.242017E-3
7.500000E-9	-9.079594E-4
7.550000E-9	-6.766890E-4
7.600000E-9	-6.509923E-4
7.650000E-9	-5.310743E-4
7.700000E-9	-2.398449E-4
7.750000E-9	-1.027958E-4
7.800000E-9	-2.055826E-4
7.850000E-9	-2.484105E-4
7.900000E-9	-2.741072E-4
7.950000E-9	-4.882464E-4
8.000000E-9	-6.938201E-4
8.050000E-9	-7.109513E-4
8.100000E-9	-6.852545E-4
8.150000E-9	-6.852545E-4
8.200000E-9	-5.139431E-4
8.250000E-9	-2.141482E-4
8.300000E-9	7.708120E-5
8.350000E-9	3.768762E-4
8.400000E-9	6.681055E-4
8.450000E-9	8.479825E-4
8.500000E-9	9.764661E-4
8.550000E-9	1.070687E-3
8.600000E-9	1.053556E-3
8.650000E-9	1.002163E-3
8.700000E-9	9.593349E-4
8.750000E-9	8.051547E-4
8.800000E-9	6.252777E-4
8.850000E-9	5.653187E-4
8.900000E-9	5.396220E-4
8.950000E-9	4.967941E-4
9.000000E-9	6.081465E-4
9.050000E-9	8.822448E-4
9.100000E-9	1.002163E-3
9.150000E-9	9.079415E-4
9.200000E-9	9.507694E-4
9.250000E-9	1.267695E-3
9.300000E-9	1.430441E-3
9.350000E-9	1.259130E-3
9.400000E-9	1.079253E-3
9.450000E-9	1.053556E-3
9.500000E-9	9.850316E-4
9.550000E-9	8.394169E-4
9.600000E-9	7.623268E-4
9.650000E-9	7.794580E-4
9.700000E-9	8.394169E-4
9.750000E-9	8.993759E-4
9.800000E-9	8.993759E-4
9.850000E-9	9.336382E-4
9.900000E-9	1.053556E-3
9.950000E-9	1.062122E-3
1.000000E-8	9.079415E-4
1.005000E-8	8.394169E-4
1.010000E-8	8.222858E-4
1.015000E-8	6.681055E-4
1.020000E-8	5.567531E-4
1.025000E-8	5.738843E-4
1.030000E-8	4.882286E-4
1.035000E-8	3.426139E-4
1.040000E-8	3.854417E-4
1.045000E-8	5.910154E-4
1.050000E-8	7.708924E-4
1.055000E-8	9.422038E-4
1.060000E-8	1.010728E-3
1.065000E-8	9.593349E-4
1.070000E-8	9.422038E-4
1.075000E-8	1.002163E-3
1.080000E-8	9.935972E-4
1.085000E-8	9.165071E-4
1.090000E-8	7.623268E-4
1.095000E-8	5.910154E-4
1.100000E-8	4.368351E-4
1.105000E-8	3.426139E-4
1.110000E-8	2.569582E-4
1.115000E-8	2.483926E-4
1.120000E-8	2.740893E-4
1.125000E-8	3.169172E-4
1.130000E-8	5.224908E-4
1.135000E-8	8.822448E-4
1.140000E-8	1.233433E-3
1.145000E-8	1.670277E-3
1.150000E-8	2.329826E-3
1.155000E-8	3.203514E-3
1.160000E-8	4.445522E-3
1.165000E-8	6.432734E-3
1.170000E-8	9.225110E-3
1.175000E-8	1.271986E-2
1.180000E-8	1.711400E-2
1.185000E-8	2.277584E-2
1.190000E-8	2.962830E-2
1.195000E-8	3.749149E-2
1.200000E-8	4.636542E-2
1.205000E-8	5.609591E-2
1.210000E-8	6.617759E-2
1.215000E-8	7.619930E-2
1.220000E-8	8.612680E-2
1.225000E-8	9.576307E-2
1.230000E-8	1.046798E-1
1.235000E-8	1.127143E-1
1.240000E-8	1.200807E-1
1.245000E-8	1.268047E-1
1.250000E-8	1.328777E-1
1.255000E-8	1.385738E-1
1.260000E-8	1.440215E-1
1.265000E-8	1.489810E-1
1.270000E-8	1.533665E-1
1.275000E-8	1.573238E-1
1.280000E-8	1.607158E-1
1.285000E-8	1.632426E-1
1.290000E-8	1.647930E-1
1.295000E-8	1.652727E-1
1.300000E-8	1.644932E-1
1.305000E-8	1.624460E-1
1.310000E-8	1.592939E-1
1.315000E-8	1.551739E-1
1.320000E-8	1.501716E-1
1.325000E-8	1.446382E-1
1.330000E-8	1.389764E-1
1.335000E-8	1.333916E-1
1.340000E-8	1.280381E-1
1.345000E-8	1.231900E-1
1.350000E-8	1.190015E-1
1.355000E-8	1.154639E-1
1.360000E-8	1.127058E-1
1.365000E-8	1.109156E-1
1.370000E-8	1.099305E-1
1.375000E-8	1.094937E-1
1.380000E-8	1.096136E-1
1.385000E-8	1.105044E-1
1.390000E-8	1.120805E-1
1.395000E-8	1.140934E-1
1.400000E-8	1.165688E-1
1.405000E-8	1.196610E-1
1.410000E-8	1.231386E-1
1.415000E-8	1.265734E-1
1.420000E-8	1.298969E-1
1.425000E-8	1.332888E-1
1.430000E-8	1.365609E-1
1.435000E-8	1.393447E-1
1.440000E-8	1.414946E-1
1.445000E-8	1.429594E-1
1.450000E-8	1.436103E-1
1.455000E-8	1.433534E-1
1.460000E-8	1.422484E-1
1.465000E-8	1.404325E-1
1.470000E-8	1.378200E-1
1.475000E-8	1.343424E-1
1.480000E-8	1.302052E-1
1.485000E-8	1.257940E-1
1.490000E-8	1.212628E-1
1.495000E-8	1.166631E-1
1.500000E-8	1.122175E-1
1.505000E-8	1.082345E-1
1.510000E-8	1.048340E-1
1.515000E-8	1.019988E-1
1.520000E-8	9.983171E-2
1.525000E-8	9.841839E-2
1.530000E-8	9.779311E-2
1.535000E-8	9.781880E-2
1.540000E-8	9.835843E-2
1.545000E-8	9.943770E-2
1.550000E-8	1.010309E-1
1.555000E-8	1.029239E-1
1.560000E-8	1.050139E-1
1.565000E-8	1.074808E-1
1.570000E-8	1.103074E-1
1.575000E-8	1.132283E-1
1.580000E-8	1.161234E-1
1.585000E-8	1.190529E-1
1.590000E-8	1.219651E-1
1.595000E-8	1.246290E-1
1.600000E-8	1.269332E-1
1.605000E-8	1.288947E-1
1.610000E-8	1.303337E-1
1.615000E-8	1.309847E-1
1.620000E-8	1.308048E-1
1.625000E-8	1.299054E-1
1.630000E-8	1.281837E-1
1.635000E-8	1.255027E-1
1.640000E-8	1.219566E-1
1.645000E-8	1.177937E-1
1.650000E-8	1.131512E-1
1.655000E-8	1.082003E-1
1.660000E-8	1.031723E-1
1.665000E-8	9.836700E-2
1.670000E-8	9.398143E-2
1.675000E-8	9.010979E-2
1.680000E-8	8.701762E-2
1.685000E-8	8.501327E-2
1.690000E-8	8.407963E-2
1.695000E-8	8.400254E-2
1.700000E-8	8.486766E-2
1.705000E-8	8.682918E-2
1.710000E-8	8.965581E-2
1.715000E-8	9.288503E-2
1.720000E-8	9.637979E-2
1.725000E-8	1.001058E-1
1.730000E-8	1.038832E-1
1.735000E-8	1.074893E-1
1.740000E-8	1.107699E-1
1.745000E-8	1.137165E-1
1.750000E-8	1.162862E-1
1.755000E-8	1.182905E-1
1.760000E-8	1.196096E-1
1.765000E-8	1.204233E-1
1.770000E-8	1.209201E-1
1.775000E-8	1.209030E-1
1.780000E-8	1.202006E-1
1.785000E-8	1.189672E-1
1.790000E-8	1.172712E-1
1.795000E-8	1.149756E-1
1.800000E-8	1.121233E-1
1.805000E-8	1.089027E-1
1.810000E-8	1.052880E-1
1.815000E-8	1.012879E-1
1.820000E-8	9.705647E-2
1.825000E-8	9.285934E-2
1.830000E-8	8.889348E-2
1.835000E-8	8.533020E-2
1.840000E-8	8.232369E-2
1.845000E-8	8.007094E-2
1.850000E-8	7.867475E-2
1.855000E-8	7.816938E-2
1.860000E-8	7.860623E-2
1.865000E-8	8.001098E-2
1.870000E-8	8.224660E-2
1.875000E-8	8.508180E-2
1.880000E-8	8.844807E-2
1.885000E-8	9.231971E-2
1.890000E-8	9.637979E-2
1.895000E-8	1.002686E-1
1.900000E-8	1.038233E-1
1.905000E-8	1.071124E-1
1.910000E-8	1.100590E-1
1.915000E-8	1.124317E-1
1.920000E-8	1.140848E-1
1.925000E-8	1.150784E-1
1.930000E-8	1.154981E-1
1.935000E-8	1.153440E-1
1.940000E-8	1.145988E-1
1.945000E-8	1.133225E-1
1.950000E-8	1.116179E-1
1.955000E-8	1.094594E-1
1.960000E-8	1.068212E-1
1.965000E-8	1.038147E-1
1.970000E-8	1.005341E-1
1.975000E-8	9.700507E-2
1.980000E-8	9.330475E-2
1.985000E-8	8.968151E-2
1.990000E-8	8.616963E-2
1.995000E-8	8.271770E-2
2.000000E-8	7.964266E-2
2.005000E-8	7.730426E-2
2.010000E-8	7.571107E-2
2.015000E-8	7.475172E-2
2.020000E-8	7.456328E-2
2.025000E-8	7.538557E-2
2.030000E-8	7.726143E-2
2.035000E-8	7.991676E-2
2.040000E-8	8.317168E-2
2.045000E-8	8.708614E-2
2.050000E-8	9.149741E-2
2.055000E-8	9.591725E-2
2.060000E-8	1.001144E-1
2.065000E-8	1.042430E-1
2.070000E-8	1.080547E-1
2.075000E-8	1.110098E-1
2.080000E-8	1.130056E-1
2.085000E-8	1.141962E-1
2.090000E-8	1.145645E-1
2.095000E-8	1.139992E-1
2.100000E-8	1.125516E-1
2.105000E-8	1.103245E-1
2.110000E-8	1.074979E-1
2.115000E-8	1.042515E-1
2.120000E-8	1.006883E-1
2.125000E-8	9.698794E-2
2.130000E-8	9.333044E-2
2.135000E-8	8.979286E-2
2.140000E-8	8.645229E-2
2.145000E-8	8.347147E-2
2.150000E-8	8.084184E-2
2.155000E-8	7.853770E-2
2.160000E-8	7.666184E-2
2.165000E-8	7.523139E-2
2.170000E-8	7.416926E-2
2.175000E-8	7.350971E-2
2.180000E-8	7.334697E-2
2.185000E-8	7.380951E-2
2.190000E-8	7.496586E-2
2.195000E-8	7.669611E-2
2.200000E-8	7.887176E-2
2.205000E-8	8.154422E-2
2.210000E-8	8.475631E-2
2.215000E-8	8.837098E-2
2.220000E-8	9.215696E-2
2.225000E-8	9.595151E-2
2.230000E-8	9.949765E-2
2.235000E-8	1.025898E-1
2.240000E-8	1.051081E-1
2.245000E-8	1.070182E-1
2.250000E-8	1.081574E-1
2.255000E-8	1.082945E-1
2.260000E-8	1.073951E-1
2.265000E-8	1.057163E-1
2.270000E-8	1.033693E-1
2.275000E-8	1.003114E-1
2.280000E-8	9.671384E-2
2.285000E-8	9.285077E-2
2.290000E-8	8.885065E-2
2.295000E-8	8.485909E-2
2.300000E-8	8.114164E-2
2.305000E-8	7.780106E-2
2.310000E-8	7.476885E-2
2.315000E-8	7.212209E-2
2.320000E-8	6.998926E-2
2.325000E-8	6.840463E-2
2.330000E-8	6.735107E-2
2.335000E-8	6.686283E-2
2.340000E-8	6.701701E-2
2.345000E-8	6.782218E-2
2.350000E-8	6.925263E-2
2.355000E-8	7.127410E-2
2.360000E-8	7.392086E-2
2.365000E-8	7.719291E-2
2.370000E-8	8.088467E-2
2.375000E-8	8.477344E-2
2.380000E-8	8.875643E-2
2.385000E-8	9.260237E-2
2.390000E-8	9.614852E-2
2.395000E-8	9.919786E-2
2.400000E-8	1.015705E-1
2.405000E-8	1.030781E-1
2.410000E-8	1.036777E-1
2.415000E-8	1.033093E-1
2.420000E-8	1.020245E-1
2.425000E-8	1.001058E-1
2.430000E-8	9.760466E-2
2.435000E-8	9.436688E-2
2.440000E-8	9.064085E-2
2.445000E-8	8.683774E-2
2.450000E-8	8.295754E-2
2.455000E-8	7.901738E-2
2.460000E-8	7.541984E-2
2.465000E-8	7.230197E-2
2.470000E-8	6.948390E-2
2.475000E-8	6.707697E-2
2.480000E-8	6.538955E-2
2.485000E-8	6.436169E-2
2.490000E-8	6.383919E-2
2.495000E-8	6.390771E-2
2.500000E-8	6.453300E-2
2.505000E-8	6.564652E-2
2.510000E-8	6.726541E-2
2.515000E-8	6.931258E-2
2.520000E-8	7.170238E-2
2.525000E-8	7.444336E-2
2.530000E-8	7.744131E-2
2.535000E-8	8.041356E-2
2.540000E-8	8.334299E-2
2.545000E-8	8.639233E-2
2.550000E-8	8.933889E-2
2.555000E-8	9.186573E-2
2.560000E-8	9.386151E-2
2.565000E-8	9.540331E-2
2.570000E-8	9.642261E-2
2.575000E-8	9.673954E-2
2.580000E-8	9.626843E-2
2.585000E-8	9.510352E-2
2.590000E-8	9.327905E-2
2.595000E-8	9.071794E-2
2.600000E-8	8.750586E-2
2.605000E-8	8.381410E-2
2.610000E-8	7.975401E-2
2.615000E-8	7.548836E-2
2.620000E-8	7.132549E-2
2.625000E-8	6.736820E-2
2.630000E-8	6.372783E-2
2.635000E-8	6.072132E-2
2.640000E-8	5.855423E-2
2.645000E-8	5.705525E-2
2.650000E-8	5.625866E-2
2.655000E-8	5.644710E-2
2.660000E-8	5.760345E-2
2.665000E-8	5.946218E-2
2.670000E-8	6.187767E-2
2.675000E-8	6.484992E-2
2.680000E-8	6.822476E-2
2.685000E-8	7.176234E-2
2.690000E-8	7.535131E-2
2.695000E-8	7.884606E-2
2.700000E-8	8.213524E-2
2.705000E-8	8.516746E-2
2.710000E-8	8.784848E-2
2.715000E-8	9.000700E-2
2.720000E-8	9.167729E-2
2.725000E-8	9.295356E-2
2.730000E-8	9.373303E-2
2.735000E-8	9.381868E-2
2.740000E-8	9.324479E-2
2.745000E-8	9.213126E-2
2.750000E-8	9.035819E-2
2.755000E-8	8.780565E-2
2.760000E-8	8.461069E-2
2.765000E-8	8.094463E-2
2.770000E-8	7.687598E-2
2.775000E-8	7.264459E-2
2.780000E-8	6.849886E-2
2.785000E-8	6.461009E-2
2.790000E-8	6.120956E-2
2.795000E-8	5.844288E-2
2.800000E-8	5.630148E-2
2.805000E-8	5.490530E-2
2.810000E-8	5.436566E-2
2.815000E-8	5.462263E-2
2.820000E-8	5.563337E-2
2.825000E-8	5.743214E-2
2.830000E-8	5.975341E-2
2.835000E-8	6.235734E-2
2.840000E-8	6.528677E-2
2.845000E-8	6.855025E-2
2.850000E-8	7.181373E-2
2.855000E-8	7.480312E-2
2.860000E-8	7.759549E-2
2.865000E-8	8.014803E-2
2.870000E-8	8.228086E-2
2.875000E-8	8.396828E-2
2.880000E-8	8.527881E-2
2.885000E-8	8.615250E-2
2.890000E-8	8.653795E-2
2.895000E-8	8.643516E-2
2.900000E-8	8.585270E-2
2.905000E-8	8.486766E-2
2.910000E-8	8.347147E-2
2.915000E-8	8.156135E-2
2.920000E-8	7.903451E-2
2.925000E-8	7.610508E-2
2.930000E-8	7.294439E-2
2.935000E-8	6.955242E-2
2.940000E-8	6.598058E-2
2.945000E-8	6.246869E-2
2.950000E-8	5.923947E-2
2.955000E-8	5.636144E-2
2.960000E-8	5.397165E-2
2.965000E-8	5.232706E-2
2.970000E-8	5.152190E-2
2.975000E-8	5.140198E-2
2.980000E-8	5.197587E-2
2.985000E-8	5.338919E-2
2.990000E-8	5.553058E-2
2.995000E-8	5.818591E-2
3.000000E-8	6.130378E-2
3.005000E-8	6.471287E-2
3.010000E-8	6.806201E-2
3.015000E-8	7.123127E-2
3.020000E-8	7.432344E-2
3.025000E-8	7.727000E-2
3.030000E-8	7.979684E-2
3.035000E-8	8.170696E-2
3.040000E-8	8.298323E-2
3.045000E-8	8.379696E-2
3.050000E-8	8.411389E-2
3.055000E-8	8.383123E-2
3.060000E-8	8.297467E-2
3.065000E-8	8.171553E-2
3.070000E-8	7.995102E-2
3.075000E-8	7.761262E-2
3.080000E-8	7.499156E-2
3.085000E-8	7.230197E-2
3.090000E-8	6.944963E-2
3.095000E-8	6.634033E-2
3.100000E-8	6.321390E-2
3.105000E-8	6.030161E-2
3.110000E-8	5.762915E-2
3.115000E-8	5.516226E-2
3.120000E-8	5.304657E-2
3.125000E-8	5.147907E-2
3.130000E-8	5.045976E-2
3.135000E-8	4.988587E-2
3.140000E-8	4.988587E-2
3.145000E-8	5.062251E-2
3.150000E-8	5.202726E-2
3.155000E-8	5.403161E-2
3.160000E-8	5.659271E-2
3.165000E-8	5.952214E-2
3.170000E-8	6.265714E-2
3.175000E-8	6.601484E-2
3.180000E-8	6.944107E-2
3.185000E-8	7.260176E-2
3.190000E-8	7.535988E-2
3.195000E-8	7.770684E-2
3.200000E-8	7.945422E-2
3.205000E-8	8.048209E-2
3.210000E-8	8.084184E-2
3.215000E-8	8.053348E-2
3.220000E-8	7.948848E-2
3.225000E-8	7.786959E-2
3.230000E-8	7.583955E-2
3.235000E-8	7.342406E-2
3.240000E-8	7.072590E-2
3.245000E-8	6.786500E-2
3.250000E-8	6.487562E-2
3.255000E-8	6.186054E-2
3.260000E-8	5.898251E-2
3.265000E-8	5.634431E-2
3.270000E-8	5.389456E-2
3.275000E-8	5.168464E-2
3.280000E-8	4.980022E-2
3.285000E-8	4.834407E-2
3.290000E-8	4.737616E-2
3.295000E-8	4.704210E-2
3.300000E-8	4.740186E-2
3.305000E-8	4.831837E-2
3.310000E-8	4.979165E-2
3.315000E-8	5.195017E-2
3.320000E-8	5.479394E-2
3.325000E-8	5.804029E-2
3.330000E-8	6.144939E-2
3.335000E-8	6.495271E-2
3.340000E-8	6.841320E-2
3.345000E-8	7.159959E-2
3.350000E-8	7.436627E-2
3.355000E-8	7.659332E-2
3.360000E-8	7.816938E-2
3.365000E-8	7.905164E-2
3.370000E-8	7.917156E-2
3.375000E-8	7.847774E-2
3.380000E-8	7.709869E-2
3.385000E-8	7.527422E-2
3.390000E-8	7.303861E-2
3.395000E-8	7.036615E-2
3.400000E-8	6.747955E-2
3.405000E-8	6.460152E-2
3.410000E-8	6.168066E-2
3.415000E-8	5.869128E-2
3.420000E-8	5.589034E-2
3.425000E-8	5.338062E-2
3.430000E-8	5.107649E-2
3.435000E-8	4.910640E-2
3.440000E-8	4.761600E-2
3.445000E-8	4.654530E-2
3.450000E-8	4.591145E-2
3.455000E-8	4.589432E-2
3.460000E-8	4.641682E-2
3.465000E-8	4.727337E-2
3.470000E-8	4.860104E-2
3.475000E-8	5.053686E-2
3.480000E-8	5.285812E-2
3.485000E-8	5.532501E-2
3.490000E-8	5.791181E-2
3.495000E-8	6.056714E-2
3.500000E-8	6.318820E-2
3.505000E-8	6.579214E-2
3.510000E-8	6.825045E-2
3.515000E-8	7.027193E-2
3.520000E-8	7.186512E-2
3.525000E-8	7.313283E-2
3.530000E-8	7.383521E-2
3.535000E-8	7.384377E-2
3.540000E-8	7.336410E-2
3.545000E-8	7.238762E-2
3.550000E-8	7.068308E-2
3.555000E-8	6.840463E-2
3.560000E-8	6.582640E-2
3.565000E-8	6.305115E-2
3.570000E-8	6.016456E-2
3.575000E-8	5.714948E-2
3.580000E-8	5.401448E-2
3.585000E-8	5.114501E-2
3.590000E-8	4.882374E-2
3.595000E-8	4.681940E-2
3.600000E-8	4.505489E-2
3.605000E-8	4.388141E-2
3.610000E-8	4.333321E-2
3.615000E-8	4.319616E-2
3.620000E-8	4.359874E-2
3.625000E-8	4.465231E-2
3.630000E-8	4.617698E-2
3.635000E-8	4.805284E-2
3.640000E-8	5.030558E-2
3.645000E-8	5.284956E-2
3.650000E-8	5.560767E-2
3.655000E-8	5.855423E-2
3.660000E-8	6.156074E-2
3.665000E-8	6.442164E-2
3.670000E-8	6.694849E-2
3.675000E-8	6.908131E-2
3.680000E-8	7.072590E-2
3.685000E-8	7.189082E-2
3.690000E-8	7.250754E-2
3.695000E-8	7.244758E-2
3.700000E-8	7.163385E-2
3.705000E-8	7.017771E-2
3.710000E-8	6.822476E-2
3.715000E-8	6.582640E-2
3.720000E-8	6.308542E-2
3.725000E-8	6.009603E-2
3.730000E-8	5.692677E-2
3.735000E-8	5.370612E-2
3.740000E-8	5.070817E-2
3.745000E-8	4.803571E-2
3.750000E-8	4.580009E-2
3.755000E-8	4.416407E-2
3.760000E-8	4.307624E-2
3.765000E-8	4.240813E-2
3.770000E-8	4.233960E-2
3.775000E-8	4.295633E-2
3.780000E-8	4.399276E-2
3.785000E-8	4.533755E-2
3.790000E-8	4.703354E-2
3.795000E-8	4.896936E-2
3.800000E-8	5.100796E-2
3.805000E-8	5.330353E-2
3.810000E-8	5.574472E-2
3.815000E-8	5.797177E-2
3.820000E-8	6.004464E-2
3.825000E-8	6.213464E-2
3.830000E-8	6.402763E-2
3.835000E-8	6.559513E-2
3.840000E-8	6.687140E-2
3.845000E-8	6.776222E-2
3.850000E-8	6.811341E-2
3.855000E-8	6.796779E-2
3.860000E-8	6.735963E-2
3.865000E-8	6.631464E-2
3.870000E-8	6.484992E-2
3.875000E-8	6.286271E-2
3.880000E-8	6.037013E-2
3.885000E-8	5.756062E-2
3.890000E-8	5.457124E-2
3.895000E-8	5.150476E-2
3.900000E-8	4.851538E-2
3.905000E-8	4.572300E-2
3.910000E-8	4.316190E-2
3.915000E-8	4.100338E-2
3.920000E-8	3.947014E-2
3.925000E-8	3.859645E-2
3.930000E-8	3.831379E-2
3.935000E-8	3.859645E-2
3.940000E-8	3.941018E-2
3.945000E-8	4.072928E-2
3.950000E-8	4.252805E-2
3.955000E-8	4.468657E-2
3.960000E-8	4.702497E-2
3.965000E-8	4.943190E-2
3.970000E-8	5.188165E-2
3.975000E-8	5.425431E-2
3.980000E-8	5.649849E-2
3.985000E-8	5.865702E-2
3.990000E-8	6.058427E-2
3.995000E-8	6.206611E-2
4.000000E-8	6.313681E-2
4.005000E-8	6.394197E-2
4.010000E-8	6.433599E-2
4.015000E-8	6.413041E-2
4.020000E-8	6.341091E-2
4.025000E-8	6.237447E-2
4.030000E-8	6.096115E-2
4.035000E-8	5.901677E-2
4.040000E-8	5.668693E-2
4.045000E-8	5.424575E-2
4.050000E-8	5.169321E-2
4.055000E-8	4.896079E-2
4.060000E-8	4.622837E-2
4.065000E-8	4.372723E-2
4.070000E-8	4.149161E-2
4.075000E-8	3.963288E-2
4.080000E-8	3.828809E-2
4.085000E-8	3.746579E-2
4.090000E-8	3.709748E-2
4.095000E-8	3.726879E-2
4.100000E-8	3.800543E-2
4.105000E-8	3.934165E-2
4.110000E-8	4.124321E-2
4.115000E-8	4.351309E-2
4.120000E-8	4.574870E-2
4.125000E-8	4.789866E-2
4.130000E-8	5.017710E-2
4.135000E-8	5.250694E-2
4.140000E-8	5.456267E-2
4.145000E-8	5.635288E-2
4.150000E-8	5.804886E-2
4.155000E-8	5.950501E-2
4.160000E-8	6.050718E-2
4.165000E-8	6.115816E-2
4.170000E-8	6.163783E-2
4.175000E-8	6.176632E-2
4.180000E-8	6.140656E-2
4.185000E-8	6.065279E-2
4.190000E-8	5.955640E-2
4.195000E-8	5.806599E-2
4.200000E-8	5.622439E-2
4.205000E-8	5.403161E-2
4.210000E-8	5.148763E-2
4.215000E-8	4.877235E-2
4.220000E-8	4.608276E-2
4.225000E-8	4.351309E-2
4.230000E-8	4.116612E-2
4.235000E-8	3.916178E-2
4.240000E-8	3.750006E-2
4.245000E-8	3.624948E-2
4.250000E-8	3.559850E-2
4.255000E-8	3.555567E-2
4.260000E-8	3.594112E-2
4.265000E-8	3.681481E-2
4.270000E-8	3.820243E-2
4.275000E-8	3.990698E-2
4.280000E-8	4.186850E-2
4.285000E-8	4.419833E-2
4.290000E-8	4.681940E-2
4.295000E-8	4.946616E-2
4.300000E-8	5.200157E-2
4.305000E-8	5.436566E-2
4.310000E-8	5.651562E-2
4.315000E-8	5.839148E-2
4.320000E-8	5.989902E-2
4.325000E-8	6.084124E-2
4.330000E-8	6.105538E-2
4.335000E-8	6.060997E-2
4.340000E-8	5.970202E-2
4.345000E-8	5.836579E-2
4.350000E-8	5.648136E-2
4.355000E-8	5.420292E-2
4.360000E-8	5.167608E-2
4.365000E-8	4.899505E-2
4.370000E-8	4.640825E-2
4.375000E-8	4.416407E-2
4.380000E-8	4.209977E-2
4.385000E-8	4.014682E-2
4.390000E-8	3.850223E-2
4.395000E-8	3.718313E-2
4.400000E-8	3.607817E-2
4.405000E-8	3.534153E-2
4.410000E-8	3.504174E-2
4.415000E-8	3.493895E-2
4.420000E-8	3.503317E-2
4.425000E-8	3.551284E-2
4.430000E-8	3.639510E-2
4.435000E-8	3.769707E-2
4.440000E-8	3.940161E-2
4.445000E-8	4.137169E-2
4.450000E-8	4.359018E-2
4.455000E-8	4.604850E-2
4.460000E-8	4.853251E-2
4.465000E-8	5.087091E-2
4.470000E-8	5.314935E-2
4.475000E-8	5.517939E-2
4.480000E-8	5.663554E-2
4.485000E-8	5.753493E-2
4.490000E-8	5.798890E-2
4.495000E-8	5.792894E-2
4.500000E-8	5.736361E-2
4.505000E-8	5.635288E-2
4.510000E-8	5.481964E-2
4.515000E-8	5.277247E-2
4.520000E-8	5.053686E-2
4.525000E-8	4.832694E-2
4.530000E-8	4.609989E-2
4.535000E-8	4.376149E-2
4.540000E-8	4.145735E-2
4.545000E-8	3.943588E-2
4.550000E-8	3.766280E-2
4.555000E-8	3.606961E-2
4.560000E-8	3.477621E-2
4.565000E-8	3.393678E-2
4.570000E-8	3.343998E-2
4.575000E-8	3.321727E-2
4.580000E-8	3.341428E-2
4.585000E-8	3.417662E-2
4.590000E-8	3.544432E-2
4.595000E-8	3.701182E-2
4.600000E-8	3.878489E-2
4.605000E-8	4.077211E-2
4.610000E-8	4.297346E-2
4.615000E-8	4.523477E-2
4.620000E-8	4.746182E-2
4.625000E-8	4.962890E-2
4.630000E-8	5.157329E-2
4.635000E-8	5.305513E-2
4.640000E-8	5.401448E-2
4.645000E-8	5.456267E-2
4.650000E-8	5.473398E-2
4.655000E-8	5.444276E-2
4.660000E-8	5.355194E-2
4.665000E-8	5.215575E-2
4.670000E-8	5.052829E-2
4.675000E-8	4.873809E-2
4.680000E-8	4.673374E-2
4.685000E-8	4.464374E-2
4.690000E-8	4.251948E-2
4.695000E-8	4.034383E-2
4.700000E-8	3.827096E-2
4.705000E-8	3.654928E-2
4.710000E-8	3.511883E-2
4.715000E-8	3.384256E-2
4.720000E-8	3.288321E-2
4.725000E-8	3.230076E-2
4.730000E-8	3.201809E-2
4.735000E-8	3.212944E-2
4.740000E-8	3.270334E-2
4.745000E-8	3.360272E-2
4.750000E-8	3.476764E-2
4.755000E-8	3.627518E-2
4.760000E-8	3.809965E-2
4.765000E-8	4.016395E-2
4.770000E-8	4.247665E-2
4.775000E-8	4.479792E-2
4.780000E-8	4.681083E-2
4.785000E-8	4.860104E-2
4.790000E-8	5.027132E-2
4.795000E-8	5.162468E-2
4.800000E-8	5.254120E-2
4.805000E-8	5.314079E-2
4.810000E-8	5.332923E-2
4.815000E-8	5.295235E-2
4.820000E-8	5.217288E-2
4.825000E-8	5.114501E-2
4.830000E-8	4.982591E-2
4.835000E-8	4.818989E-2
4.840000E-8	4.627120E-2
4.845000E-8	4.415551E-2
4.850000E-8	4.195415E-2
4.855000E-8	3.980420E-2
4.860000E-8	3.774846E-2
4.865000E-8	3.581264E-2
4.870000E-8	3.400530E-2
4.875000E-8	3.241211E-2
4.880000E-8	3.121293E-2
4.885000E-8	3.053625E-2
4.890000E-8	3.030498E-2
4.895000E-8	3.041633E-2
4.900000E-8	3.095596E-2
4.905000E-8	3.200953E-2
4.910000E-8	3.345711E-2
4.915000E-8	3.509313E-2
4.920000E-8	3.687477E-2
4.925000E-8	3.883629E-2
4.930000E-8	4.076354E-2
4.935000E-8	4.244239E-2
4.940000E-8	4.392423E-2
4.945000E-8	4.532899E-2
4.950000E-8	4.643395E-2
4.955000E-8	4.711919E-2
4.960000E-8	4.747895E-2
4.965000E-8	4.765026E-2
4.970000E-8	4.759886E-2
4.975000E-8	4.728194E-2
4.980000E-8	4.674231E-2
4.985000E-8	4.600567E-2
4.990000E-8	4.507202E-2
4.995000E-8	4.392423E-2
5.000000E-8	4.265653E-2
5.005000E-8	4.137169E-2
5.010000E-8	3.996694E-2
5.015000E-8	3.833092E-2
5.020000E-8	3.662637E-2
5.025000E-8	3.499035E-2
5.030000E-8	3.343141E-2
5.035000E-8	3.212088E-2
5.040000E-8	3.115297E-2
5.045000E-8	3.044203E-2
5.050000E-8	3.006514E-2
5.055000E-8	3.014223E-2
5.060000E-8	3.056195E-2
5.065000E-8	3.131572E-2
5.070000E-8	3.253203E-2
5.075000E-8	3.410809E-2
5.080000E-8	3.588973E-2
5.085000E-8	3.785125E-2
5.090000E-8	3.988129E-2
5.095000E-8	4.188563E-2
5.100000E-8	4.382145E-2
5.105000E-8	4.555169E-2
5.110000E-8	4.688792E-2
5.115000E-8	4.785583E-2
5.120000E-8	4.842116E-2
5.125000E-8	4.851538E-2
5.130000E-8	4.829268E-2
5.135000E-8	4.782157E-2
5.140000E-8	4.687079E-2
5.145000E-8	4.545747E-2
5.150000E-8	4.388997E-2
5.155000E-8	4.223682E-2
5.160000E-8	4.046374E-2
5.165000E-8	3.869924E-2
5.170000E-8	3.696899E-2
5.175000E-8	3.518735E-2
5.180000E-8	3.350850E-2
5.185000E-8	3.212088E-2
5.190000E-8	3.107588E-2
5.195000E-8	3.021932E-2
5.200000E-8	2.954264E-2
5.205000E-8	2.921715E-2
5.210000E-8	2.923428E-2
5.215000E-8	2.949125E-2
5.220000E-8	3.006514E-2
5.225000E-8	3.099879E-2
5.230000E-8	3.208662E-2
5.235000E-8	3.328580E-2
5.240000E-8	3.476764E-2
5.245000E-8	3.648075E-2
5.250000E-8	3.827096E-2
5.255000E-8	4.002690E-2
5.260000E-8	4.159440E-2
5.265000E-8	4.291350E-2
5.270000E-8	4.412981E-2
5.275000E-8	4.517481E-2
5.280000E-8	4.574014E-2
5.285000E-8	4.587718E-2
5.290000E-8	4.565448E-2
5.295000E-8	4.490071E-2
5.300000E-8	4.369296E-2
5.305000E-8	4.242526E-2
5.310000E-8	4.107190E-2
5.315000E-8	3.942731E-2
5.320000E-8	3.773989E-2
5.325000E-8	3.625805E-2
5.330000E-8	3.486186E-2
5.335000E-8	3.358559E-2
5.340000E-8	3.249776E-2
5.345000E-8	3.145276E-2
5.350000E-8	3.046772E-2
5.355000E-8	2.977391E-2
5.360000E-8	2.937133E-2
5.365000E-8	2.911436E-2
5.370000E-8	2.899445E-2
5.375000E-8	2.903727E-2
5.380000E-8	2.932850E-2
5.385000E-8	2.989383E-2
5.390000E-8	3.065617E-2
5.395000E-8	3.164977E-2
5.400000E-8	3.302026E-2
5.405000E-8	3.459633E-2
5.410000E-8	3.612100E-2
5.415000E-8	3.757715E-2
5.420000E-8	3.911038E-2
5.425000E-8	4.072928E-2
5.430000E-8	4.223682E-2
5.435000E-8	4.345313E-2
5.440000E-8	4.430969E-2
5.445000E-8	4.496067E-2
5.450000E-8	4.541464E-2
5.455000E-8	4.550030E-2
5.460000E-8	4.518337E-2
5.465000E-8	4.450669E-2
5.470000E-8	4.341887E-2
5.475000E-8	4.192846E-2
5.480000E-8	4.021534E-2
5.485000E-8	3.842514E-2
5.490000E-8	3.654928E-2
5.495000E-8	3.457063E-2
5.500000E-8	3.254059E-2
5.505000E-8	3.068186E-2
5.510000E-8	2.921715E-2
5.515000E-8	2.805223E-2
5.520000E-8	2.716141E-2
5.525000E-8	2.665605E-2
5.530000E-8	2.660465E-2
5.535000E-8	2.693014E-2
5.540000E-8	2.761539E-2
5.545000E-8	2.866039E-2
5.550000E-8	3.001375E-2
5.555000E-8	3.153842E-2
5.560000E-8	3.299457E-2
5.565000E-8	3.439076E-2
5.570000E-8	3.587260E-2
5.575000E-8	3.732875E-2
5.580000E-8	3.846797E-2
5.585000E-8	3.929883E-2
5.590000E-8	3.999264E-2
5.595000E-8	4.050657E-2
5.600000E-8	4.069501E-2
5.605000E-8	4.065219E-2
5.610000E-8	4.051514E-2
5.615000E-8	4.022391E-2
5.620000E-8	3.968428E-2
5.625000E-8	3.893051E-2
5.630000E-8	3.805682E-2
5.635000E-8	3.710604E-2
5.640000E-8	3.604391E-2
5.645000E-8	3.496465E-2
5.650000E-8	3.390252E-2
5.655000E-8	3.267764E-2
5.660000E-8	3.135854E-2
5.665000E-8	3.028785E-2
5.670000E-8	2.946555E-2
5.675000E-8	2.870322E-2
5.680000E-8	2.806080E-2
5.685000E-8	2.766678E-2
5.690000E-8	2.755543E-2
5.695000E-8	2.776957E-2
5.700000E-8	2.832633E-2
5.705000E-8	2.901158E-2
5.710000E-8	2.981674E-2
5.715000E-8	3.083604E-2
5.720000E-8	3.202666E-2
5.725000E-8	3.328580E-2
5.730000E-8	3.457920E-2
5.735000E-8	3.581264E-2
5.740000E-8	3.695186E-2
5.745000E-8	3.807395E-2
5.750000E-8	3.905043E-2
5.755000E-8	3.978706E-2
5.760000E-8	4.033526E-2
5.765000E-8	4.067788E-2
5.770000E-8	4.067788E-2
5.775000E-8	4.030956E-2
5.780000E-8	3.968428E-2
5.785000E-8	3.883629E-2
5.790000E-8	3.777416E-2
5.795000E-8	3.641223E-2
5.800000E-8	3.475051E-2
5.805000E-8	3.301170E-2
5.810000E-8	3.136711E-2
5.815000E-8	2.984244E-2
5.820000E-8	2.848908E-2
5.825000E-8	2.733273E-2
5.830000E-8	2.636482E-2
5.835000E-8	2.561105E-2
5.840000E-8	2.520846E-2
5.845000E-8	2.517420E-2
5.850000E-8	2.555109E-2
5.855000E-8	2.626203E-2
5.860000E-8	2.713572E-2
5.865000E-8	2.818072E-2
5.870000E-8	2.945699E-2
5.875000E-8	3.081891E-2
5.880000E-8	3.220653E-2
5.885000E-8	3.378260E-2
5.890000E-8	3.537580E-2
5.895000E-8	3.664350E-2
5.900000E-8	3.771420E-2
5.905000E-8	3.877633E-2
5.910000E-8	3.970997E-2
5.915000E-8	4.031813E-2
5.920000E-8	4.059223E-2
5.925000E-8	4.057510E-2
5.930000E-8	4.036096E-2
5.935000E-8	3.998407E-2
5.940000E-8	3.925600E-2
5.945000E-8	3.815104E-2
5.950000E-8	3.678055E-2
5.955000E-8	3.517879E-2
5.960000E-8	3.344854E-2
5.965000E-8	3.182965E-2
5.970000E-8	3.036494E-2
5.975000E-8	2.888309E-2
5.980000E-8	2.751260E-2
5.985000E-8	2.640764E-2
5.990000E-8	2.548256E-2
5.995000E-8	2.474592E-2
6.000000E-8	2.436047E-2
6.005000E-8	2.430908E-2
6.010000E-8	2.444613E-2
6.015000E-8	2.478019E-2
6.020000E-8	2.547400E-2
6.025000E-8	2.646760E-2
6.030000E-8	2.746977E-2
6.035000E-8	2.846338E-2
6.040000E-8	2.961117E-2
6.045000E-8	3.082748E-2
6.050000E-8	3.194957E-2
6.055000E-8	3.305453E-2
6.060000E-8	3.421088E-2
6.065000E-8	3.523018E-2
6.070000E-8	3.600965E-2
6.075000E-8	3.656641E-2
6.080000E-8	3.697756E-2
6.085000E-8	3.731161E-2
6.090000E-8	3.742297E-2
6.095000E-8	3.714887E-2
6.100000E-8	3.660924E-2
6.105000E-8	3.594969E-2
6.110000E-8	3.510170E-2
6.115000E-8	3.409096E-2
6.120000E-8	3.302883E-2
6.125000E-8	3.180395E-2
6.130000E-8	3.039063E-2
6.135000E-8	2.903727E-2
6.140000E-8	2.782096E-2
6.145000E-8	2.667318E-2
6.150000E-8	2.572240E-2
6.155000E-8	2.502859E-2
6.160000E-8	2.443756E-2
6.165000E-8	2.406924E-2
6.170000E-8	2.404355E-2
6.175000E-8	2.426625E-2
6.180000E-8	2.470310E-2
6.185000E-8	2.546543E-2
6.190000E-8	2.642478E-2
6.195000E-8	2.741838E-2
6.200000E-8	2.848051E-2
6.205000E-8	2.967113E-2
6.210000E-8	3.092170E-2
6.215000E-8	3.217227E-2
6.220000E-8	3.323440E-2
6.225000E-8	3.403957E-2
6.230000E-8	3.476764E-2
6.235000E-8	3.542719E-2
6.240000E-8	3.582121E-2
6.245000E-8	3.598395E-2
6.250000E-8	3.606961E-2
6.255000E-8	3.593256E-2
6.260000E-8	3.542719E-2
6.265000E-8	3.474194E-2
6.270000E-8	3.397104E-2
6.275000E-8	3.292604E-2
6.280000E-8	3.156412E-2
6.285000E-8	3.013367E-2
6.290000E-8	2.880600E-2
6.295000E-8	2.746121E-2
6.300000E-8	2.607359E-2
6.305000E-8	2.483158E-2
6.310000E-8	2.388937E-2
6.315000E-8	2.316986E-2
6.320000E-8	2.258740E-2
6.325000E-8	2.228760E-2
6.330000E-8	2.241609E-2
6.335000E-8	2.287863E-2
6.340000E-8	2.346965E-2
6.345000E-8	2.424055E-2
6.350000E-8	2.523416E-2
6.355000E-8	2.627916E-2
6.360000E-8	2.728133E-2
6.365000E-8	2.836059E-2
6.370000E-8	2.949125E-2
6.375000E-8	3.043346E-2
6.380000E-8	3.117867E-2
6.385000E-8	3.190674E-2
6.390000E-8	3.254916E-2
6.395000E-8	3.290891E-2
6.400000E-8	3.302883E-2
6.405000E-8	3.306309E-2
6.410000E-8	3.294317E-2
6.415000E-8	3.265194E-2
6.420000E-8	3.230076E-2
6.425000E-8	3.182965E-2
6.430000E-8	3.112727E-2
6.435000E-8	3.031354E-2
6.440000E-8	2.959404E-2
6.445000E-8	2.891736E-2
6.450000E-8	2.810363E-2
6.455000E-8	2.709289E-2
6.460000E-8	2.604789E-2
6.465000E-8	2.512281E-2
6.470000E-8	2.436047E-2
6.475000E-8	2.368379E-2
6.480000E-8	2.307564E-2
6.485000E-8	2.268162E-2
6.490000E-8	2.249318E-2
6.495000E-8	2.244178E-2
6.500000E-8	2.273301E-2
6.505000E-8	2.353818E-2
6.510000E-8	2.458318E-2
6.515000E-8	2.556822E-2
6.520000E-8	2.656182E-2
6.525000E-8	2.768391E-2
6.530000E-8	2.878887E-2
6.535000E-8	2.979961E-2
6.540000E-8	3.077608E-2
6.545000E-8	3.157268E-2
6.550000E-8	3.207805E-2
6.555000E-8	3.242067E-2
6.560000E-8	3.269477E-2
6.565000E-8	3.279756E-2
6.570000E-8	3.272047E-2
6.575000E-8	3.249776E-2
6.580000E-8	3.213801E-2
6.585000E-8	3.162408E-2
6.590000E-8	3.099022E-2
6.595000E-8	3.023645E-2
6.600000E-8	2.937133E-2
6.605000E-8	2.840342E-2
6.610000E-8	2.729846E-2
6.615000E-8	2.604789E-2
6.620000E-8	2.482301E-2
6.625000E-8	2.383797E-2
6.630000E-8	2.301568E-2
6.635000E-8	2.228760E-2
6.640000E-8	2.183363E-2
6.645000E-8	2.173941E-2
6.650000E-8	2.185933E-2
6.655000E-8	2.213342E-2
6.660000E-8	2.265592E-2
6.665000E-8	2.342683E-2
6.670000E-8	2.426625E-2
6.675000E-8	2.502002E-2
6.680000E-8	2.567957E-2
6.685000E-8	2.650187E-2
6.690000E-8	2.743551E-2
6.695000E-8	2.817215E-2
6.700000E-8	2.870322E-2
6.705000E-8	2.932850E-2
6.710000E-8	3.001375E-2
6.715000E-8	3.058764E-2
6.720000E-8	3.108445E-2
6.725000E-8	3.146133E-2
6.730000E-8	3.164121E-2
6.735000E-8	3.161551E-2
6.740000E-8	3.131572E-2
6.745000E-8	3.075895E-2
6.750000E-8	3.013367E-2
6.755000E-8	2.939703E-2
6.760000E-8	2.834346E-2
6.765000E-8	2.715285E-2
6.770000E-8	2.612498E-2
6.775000E-8	2.517420E-2
6.780000E-8	2.423199E-2
6.785000E-8	2.341826E-2
6.790000E-8	2.276728E-2
6.795000E-8	2.224478E-2
6.800000E-8	2.191929E-2
6.805000E-8	2.185076E-2
6.810000E-8	2.198781E-2
6.815000E-8	2.222765E-2
6.820000E-8	2.252744E-2
6.825000E-8	2.290433E-2
6.830000E-8	2.345252E-2
6.835000E-8	2.412920E-2
6.840000E-8	2.489154E-2
6.845000E-8	2.570527E-2
6.850000E-8	2.651900E-2
6.855000E-8	2.722994E-2
6.860000E-8	2.781240E-2
6.865000E-8	2.837773E-2
6.870000E-8	2.888309E-2
6.875000E-8	2.916576E-2
6.880000E-8	2.918289E-2
6.885000E-8	2.903727E-2
6.890000E-8	2.881457E-2
6.895000E-8	2.847195E-2
6.900000E-8	2.806080E-2
6.905000E-8	2.762395E-2
6.910000E-8	2.709289E-2
6.915000E-8	2.645047E-2
6.920000E-8	2.575666E-2
6.925000E-8	2.501146E-2
6.930000E-8	2.428338E-2
6.935000E-8	2.361527E-2
6.940000E-8	2.290433E-2
6.945000E-8	2.216769E-2
6.950000E-8	2.157666E-2
6.955000E-8	2.121691E-2
6.960000E-8	2.093424E-2
6.965000E-8	2.070297E-2
6.970000E-8	2.063445E-2
6.975000E-8	2.071154E-2
6.980000E-8	2.095994E-2
6.985000E-8	2.148244E-2
6.990000E-8	2.219338E-2
6.995000E-8	2.302424E-2
7.000000E-8	2.388937E-2
7.005000E-8	2.466883E-2
7.010000E-8	2.546543E-2
7.015000E-8	2.637338E-2
7.020000E-8	2.722137E-2
7.025000E-8	2.782953E-2
7.030000E-8	2.834346E-2
7.035000E-8	2.870322E-2
7.040000E-8	2.876318E-2
7.045000E-8	2.867752E-2
7.050000E-8	2.861756E-2
7.055000E-8	2.833490E-2
7.060000E-8	2.775244E-2
7.065000E-8	2.712715E-2
7.070000E-8	2.655326E-2
7.075000E-8	2.590228E-2
7.080000E-8	2.514851E-2
7.085000E-8	2.432621E-2
7.090000E-8	2.342683E-2
7.095000E-8	2.253601E-2
7.100000E-8	2.167945E-2
7.105000E-8	2.092568E-2
7.110000E-8	2.039461E-2
7.115000E-8	2.005199E-2
7.120000E-8	1.971793E-2
7.125000E-8	1.952093E-2
7.130000E-8	1.966654E-2
7.135000E-8	2.000916E-2
7.140000E-8	2.040318E-2
7.145000E-8	2.100277E-2
7.150000E-8	2.181650E-2
7.155000E-8	2.269019E-2
7.160000E-8	2.359814E-2
7.165000E-8	2.460887E-2
7.170000E-8	2.549969E-2
7.175000E-8	2.617637E-2
7.180000E-8	2.680166E-2
7.185000E-8	2.738412E-2
7.190000E-8	2.772674E-2
7.195000E-8	2.788949E-2
7.200000E-8	2.794945E-2
7.205000E-8	2.783809E-2
7.210000E-8	2.756400E-2
7.215000E-8	2.721281E-2
7.220000E-8	2.673314E-2
7.225000E-8	2.621064E-2
7.230000E-8	2.573953E-2
7.235000E-8	2.519990E-2
7.240000E-8	2.447183E-2
7.245000E-8	2.370949E-2
7.250000E-8	2.310990E-2
7.255000E-8	2.264736E-2
7.260000E-8	2.216769E-2
7.265000E-8	2.165375E-2
7.270000E-8	2.119121E-2
7.275000E-8	2.089998E-2
7.280000E-8	2.068584E-2
7.285000E-8	2.050597E-2
7.290000E-8	2.060019E-2
7.295000E-8	2.089998E-2
7.300000E-8	2.115695E-2
7.305000E-8	2.143961E-2
7.310000E-8	2.198781E-2
7.315000E-8	2.262166E-2
7.320000E-8	2.318699E-2
7.325000E-8	2.388080E-2
7.330000E-8	2.472879E-2
7.335000E-8	2.546543E-2
7.340000E-8	2.602219E-2
7.345000E-8	2.658752E-2
7.350000E-8	2.710146E-2
7.355000E-8	2.735842E-2
7.360000E-8	2.740982E-2
7.365000E-8	2.734129E-2
7.370000E-8	2.709289E-2
7.375000E-8	2.665605E-2
7.380000E-8	2.610785E-2
7.385000E-8	2.548256E-2
7.390000E-8	2.477162E-2
7.395000E-8	2.402642E-2
7.400000E-8	2.330691E-2
7.405000E-8	2.267306E-2
7.410000E-8	2.210773E-2
7.415000E-8	2.154240E-2
7.420000E-8	2.093424E-2
7.425000E-8	2.040318E-2
7.430000E-8	2.003486E-2
7.435000E-8	1.974363E-2
7.440000E-8	1.946953E-2
7.445000E-8	1.923826E-2
7.450000E-8	1.903269E-2
7.455000E-8	1.892990E-2
7.460000E-8	1.910121E-2
7.465000E-8	1.949523E-2
7.470000E-8	2.002629E-2
7.475000E-8	2.067728E-2
7.480000E-8	2.137109E-2
7.485000E-8	2.206490E-2
7.490000E-8	2.289576E-2
7.495000E-8	2.379514E-2
7.500000E-8	2.449752E-2
7.505000E-8	2.500289E-2
7.510000E-8	2.542260E-2
7.515000E-8	2.560248E-2
7.520000E-8	2.547400E-2
7.525000E-8	2.526842E-2
7.530000E-8	2.499432E-2
7.535000E-8	2.449752E-2
7.540000E-8	2.385510E-2
7.545000E-8	2.322982E-2
7.550000E-8	2.266449E-2
7.555000E-8	2.215912E-2
7.560000E-8	2.169658E-2
7.565000E-8	2.124261E-2
7.570000E-8	2.088285E-2
7.575000E-8	2.062588E-2
7.580000E-8	2.040318E-2
7.585000E-8	2.021474E-2
7.590000E-8	2.012052E-2
7.595000E-8	2.001773E-2
7.600000E-8	1.985498E-2
7.605000E-8	1.970080E-2
7.610000E-8	1.954662E-2
7.615000E-8	1.943527E-2
7.620000E-8	1.942670E-2
7.625000E-8	1.947810E-2
7.630000E-8	1.952949E-2
7.635000E-8	1.970937E-2
7.640000E-8	2.011195E-2
7.645000E-8	2.068584E-2
7.650000E-8	2.125974E-2
7.655000E-8	2.183363E-2
7.660000E-8	2.240752E-2
7.665000E-8	2.298142E-2
7.670000E-8	2.357244E-2
7.675000E-8	2.411207E-2
7.680000E-8	2.449752E-2
7.685000E-8	2.472879E-2
7.690000E-8	2.478019E-2
7.695000E-8	2.448896E-2
7.700000E-8	2.396646E-2
7.705000E-8	2.350392E-2
7.710000E-8	2.299855E-2
7.715000E-8	2.215912E-2
7.720000E-8	2.113982E-2
7.725000E-8	2.030896E-2
7.730000E-8	1.957232E-2
7.735000E-8	1.883568E-2
7.740000E-8	1.821039E-2
7.745000E-8	1.773929E-2
7.750000E-8	1.746519E-2
7.755000E-8	1.749089E-2
7.760000E-8	1.768789E-2
7.765000E-8	1.791916E-2
7.770000E-8	1.840740E-2
7.775000E-8	1.917830E-2
7.780000E-8	1.987211E-2
7.785000E-8	2.046314E-2
7.790000E-8	2.122547E-2
7.795000E-8	2.200494E-2
7.800000E-8	2.257883E-2
7.805000E-8	2.301568E-2
7.810000E-8	2.329834E-2
7.815000E-8	2.333260E-2
7.820000E-8	2.316986E-2
7.825000E-8	2.304137E-2
7.830000E-8	2.301568E-2
7.835000E-8	2.293859E-2
7.840000E-8	2.281010E-2
7.845000E-8	2.280154E-2
7.850000E-8	2.292146E-2
7.855000E-8	2.298142E-2
7.860000E-8	2.297285E-2
7.865000E-8	2.299855E-2
7.870000E-8	2.287006E-2
7.875000E-8	2.242465E-2
7.880000E-8	2.183363E-2
7.885000E-8	2.129400E-2
7.890000E-8	2.066871E-2
7.895000E-8	1.984642E-2
7.900000E-8	1.892990E-2
7.905000E-8	1.813330E-2
7.910000E-8	1.757654E-2
7.915000E-8	1.720822E-2
7.920000E-8	1.692556E-2
7.925000E-8	1.677994E-2
7.930000E-8	1.679707E-2
7.935000E-8	1.696839E-2
7.940000E-8	1.731101E-2
7.945000E-8	1.789347E-2
7.950000E-8	1.859584E-2
7.955000E-8	1.920400E-2
7.960000E-8	1.973506E-2
7.965000E-8	2.023187E-2
7.970000E-8	2.065158E-2
7.975000E-8	2.098564E-2
7.980000E-8	2.135396E-2
7.985000E-8	2.172228E-2
7.990000E-8	2.188502E-2
7.995000E-8	2.181650E-2
8.000000E-8	2.173084E-2
8.005000E-8	2.170515E-2
8.010000E-8	2.164519E-2
8.015000E-8	2.158523E-2
8.020000E-8	2.152527E-2
8.025000E-8	2.140535E-2
8.030000E-8	2.119978E-2
8.035000E-8	2.102847E-2
8.040000E-8	2.089998E-2
8.045000E-8	2.064302E-2
8.050000E-8	2.020617E-2
8.055000E-8	1.971793E-2
8.060000E-8	1.922970E-2
8.065000E-8	1.865580E-2
8.070000E-8	1.803052E-2
8.075000E-8	1.745662E-2
8.080000E-8	1.702834E-2
8.085000E-8	1.677994E-2
8.090000E-8	1.677138E-2
8.095000E-8	1.701121E-2
8.100000E-8	1.737953E-2
8.105000E-8	1.785064E-2
8.110000E-8	1.847593E-2
8.115000E-8	1.917830E-2
8.120000E-8	1.985498E-2
8.125000E-8	2.054879E-2
8.130000E-8	2.119978E-2
8.135000E-8	2.148244E-2
8.140000E-8	2.137109E-2
8.145000E-8	2.119978E-2
8.150000E-8	2.101990E-2
8.155000E-8	2.060875E-2
8.160000E-8	2.006912E-2
8.165000E-8	1.965797E-2
8.170000E-8	1.925539E-2
8.175000E-8	1.879285E-2
8.180000E-8	1.845879E-2
8.185000E-8	1.837314E-2
8.190000E-8	1.835601E-2
8.195000E-8	1.833031E-2
8.200000E-8	1.832175E-2
8.205000E-8	1.829605E-2
8.210000E-8	1.826179E-2
8.215000E-8	1.827035E-2
8.220000E-8	1.821896E-2
8.225000E-8	1.809904E-2
8.230000E-8	1.792773E-2
8.235000E-8	1.763650E-2
8.240000E-8	1.724248E-2
8.245000E-8	1.695982E-2
8.250000E-8	1.682277E-2
8.255000E-8	1.671142E-2
8.260000E-8	1.671142E-2
8.265000E-8	1.691699E-2
8.270000E-8	1.722535E-2
8.275000E-8	1.764507E-2
8.280000E-8	1.818470E-2
8.285000E-8	1.875002E-2
8.290000E-8	1.928109E-2
8.295000E-8	1.975220E-2
8.300000E-8	2.007769E-2
8.305000E-8	2.029183E-2
8.310000E-8	2.047170E-2
8.315000E-8	2.048027E-2
8.320000E-8	2.030896E-2
8.325000E-8	2.014621E-2
8.330000E-8	1.995777E-2
8.335000E-8	1.964084E-2
8.340000E-8	1.939244E-2
8.345000E-8	1.924683E-2
8.350000E-8	1.890420E-2
8.355000E-8	1.842453E-2
8.360000E-8	1.804765E-2
8.365000E-8	1.781638E-2
8.370000E-8	1.757654E-2
8.375000E-8	1.720822E-2
8.380000E-8	1.671142E-2
8.385000E-8	1.625744E-2
8.390000E-8	1.596621E-2
8.395000E-8	1.570925E-2
8.400000E-8	1.545228E-2
8.405000E-8	1.544371E-2
8.410000E-8	1.565785E-2
8.415000E-8	1.586343E-2
8.420000E-8	1.614609E-2
8.425000E-8	1.668572E-2
8.430000E-8	1.733671E-2
8.435000E-8	1.781638E-2
8.440000E-8	1.815043E-2
8.445000E-8	1.847593E-2
8.450000E-8	1.881855E-2
8.455000E-8	1.912691E-2
8.460000E-8	1.931535E-2
8.465000E-8	1.936675E-2
8.470000E-8	1.934961E-2
8.475000E-8	1.938388E-2
8.480000E-8	1.945240E-2
8.485000E-8	1.947810E-2
8.490000E-8	1.946097E-2
8.495000E-8	1.945240E-2
8.500000E-8	1.940957E-2
8.505000E-8	1.932392E-2
8.510000E-8	1.920400E-2
8.515000E-8	1.895560E-2
8.520000E-8	1.853588E-2
8.525000E-8	1.805621E-2
8.530000E-8	1.750802E-2
8.535000E-8	1.684847E-2
8.540000E-8	1.618035E-2
8.545000E-8	1.564072E-2
8.550000E-8	1.515248E-2
8.555000E-8	1.471564E-2
8.560000E-8	1.448437E-2
8.565000E-8	1.452720E-2
8.570000E-8	1.472421E-2
8.575000E-8	1.500687E-2
8.580000E-8	1.540089E-2
8.585000E-8	1.588056E-2
8.590000E-8	1.638593E-2
8.595000E-8	1.690843E-2
8.600000E-8	1.749089E-2
8.605000E-8	1.815900E-2
8.610000E-8	1.875859E-2
8.615000E-8	1.922113E-2
8.620000E-8	1.962371E-2
8.625000E-8	1.994064E-2
8.630000E-8	2.011195E-2
8.635000E-8	2.023187E-2
8.640000E-8	2.024900E-2
8.645000E-8	2.000916E-2
8.650000E-8	1.958088E-2
8.655000E-8	1.911834E-2
8.660000E-8	1.862154E-2
8.665000E-8	1.804765E-2
8.670000E-8	1.745662E-2
8.675000E-8	1.676281E-2
8.680000E-8	1.594908E-2
8.685000E-8	1.523814E-2
8.690000E-8	1.473277E-2
8.695000E-8	1.433019E-2
8.700000E-8	1.400470E-2
8.705000E-8	1.380769E-2
8.710000E-8	1.363638E-2
8.715000E-8	1.344794E-2
8.720000E-8	1.337085E-2
8.725000E-8	1.354216E-2
8.730000E-8	1.387621E-2
8.735000E-8	1.421027E-2
8.740000E-8	1.461285E-2
8.745000E-8	1.513535E-2
8.750000E-8	1.567498E-2
8.755000E-8	1.618035E-2
8.760000E-8	1.678851E-2
8.765000E-8	1.746519E-2
8.770000E-8	1.803052E-2
8.775000E-8	1.845879E-2
8.780000E-8	1.882711E-2
8.785000E-8	1.916117E-2
8.790000E-8	1.945240E-2
8.795000E-8	1.961515E-2
8.800000E-8	1.953806E-2
8.805000E-8	1.934961E-2
8.810000E-8	1.920400E-2
8.815000E-8	1.894703E-2
8.820000E-8	1.857015E-2
8.825000E-8	1.819326E-2
8.830000E-8	1.776498E-2
8.835000E-8	1.721679E-2
8.840000E-8	1.671998E-2
8.845000E-8	1.637736E-2
8.850000E-8	1.601761E-2
8.855000E-8	1.558076E-2
8.860000E-8	1.516962E-2
8.865000E-8	1.487839E-2
8.870000E-8	1.465568E-2
8.875000E-8	1.446724E-2
8.880000E-8	1.431306E-2
8.885000E-8	1.428736E-2
8.890000E-8	1.439015E-2
8.895000E-8	1.446724E-2
8.900000E-8	1.454433E-2
8.905000E-8	1.478417E-2
8.910000E-8	1.516962E-2
8.915000E-8	1.552937E-2
8.920000E-8	1.580347E-2
8.925000E-8	1.607757E-2
8.930000E-8	1.640306E-2
8.935000E-8	1.672855E-2
8.940000E-8	1.698552E-2
8.945000E-8	1.708830E-2
8.950000E-8	1.709687E-2
8.955000E-8	1.711400E-2
8.960000E-8	1.711400E-2
8.965000E-8	1.701978E-2
8.970000E-8	1.687416E-2
8.975000E-8	1.679707E-2
8.980000E-8	1.660863E-2
8.985000E-8	1.619748E-2
8.990000E-8	1.583773E-2
8.995000E-8	1.572638E-2
9.000000E-8	1.560646E-2
9.005000E-8	1.528953E-2
9.010000E-8	1.492978E-2
9.015000E-8	1.467281E-2
9.020000E-8	1.448437E-2
9.025000E-8	1.441585E-2
9.030000E-8	1.443298E-2
9.035000E-8	1.434732E-2
9.040000E-8	1.421027E-2
9.045000E-8	1.421884E-2
9.050000E-8	1.441585E-2
9.055000E-8	1.463855E-2
9.060000E-8	1.482699E-2
9.065000E-8	1.499830E-2
9.070000E-8	1.513535E-2
9.075000E-8	1.516962E-2
9.080000E-8	1.516105E-2
9.085000E-8	1.519531E-2
9.090000E-8	1.522101E-2
9.095000E-8	1.511822E-2
9.100000E-8	1.496404E-2
9.105000E-8	1.496404E-2
9.110000E-8	1.508396E-2
9.115000E-8	1.512679E-2
9.120000E-8	1.511822E-2
9.125000E-8	1.520388E-2
9.130000E-8	1.528097E-2
9.135000E-8	1.516105E-2
9.140000E-8	1.496404E-2
9.145000E-8	1.493835E-2
9.150000E-8	1.497261E-2
9.155000E-8	1.482699E-2
9.160000E-8	1.453576E-2
9.165000E-8	1.429593E-2
9.170000E-8	1.414175E-2
9.175000E-8	1.403040E-2
9.180000E-8	1.392761E-2
9.185000E-8	1.379912E-2
9.190000E-8	1.373917E-2
9.195000E-8	1.373917E-2
9.200000E-8	1.367064E-2
9.205000E-8	1.360212E-2
9.210000E-8	1.382482E-2
9.215000E-8	1.421884E-2
9.220000E-8	1.438158E-2
9.225000E-8	1.442441E-2
9.230000E-8	1.468138E-2
9.235000E-8	1.504113E-2
9.240000E-8	1.528097E-2
9.245000E-8	1.542658E-2
9.250000E-8	1.552080E-2
9.255000E-8	1.550367E-2
9.260000E-8	1.539232E-2
9.265000E-8	1.528953E-2
9.270000E-8	1.514392E-2
9.275000E-8	1.495548E-2
9.280000E-8	1.480130E-2
9.285000E-8	1.473277E-2
9.290000E-8	1.470708E-2
9.295000E-8	1.473277E-2
9.300000E-8	1.486126E-2
9.305000E-8	1.502400E-2
9.310000E-8	1.514392E-2
9.315000E-8	1.522957E-2
9.320000E-8	1.521244E-2
9.325000E-8	1.504970E-2
9.330000E-8	1.484412E-2
9.335000E-8	1.465568E-2
9.340000E-8	1.435589E-2
9.345000E-8	1.398757E-2
9.350000E-8	1.377343E-2
9.355000E-8	1.367921E-2
9.360000E-8	1.360212E-2
9.365000E-8	1.362781E-2
9.370000E-8	1.384195E-2
9.375000E-8	1.409035E-2
9.380000E-8	1.434732E-2
9.385000E-8	1.482699E-2
9.390000E-8	1.547798E-2
9.395000E-8	1.600048E-2
9.400000E-8	1.632597E-2
9.405000E-8	1.662576E-2
9.410000E-8	1.695982E-2
9.415000E-8	1.719966E-2
9.420000E-8	1.725105E-2
9.425000E-8	1.717396E-2
9.430000E-8	1.703691E-2
9.435000E-8	1.672855E-2
9.440000E-8	1.618892E-2
9.445000E-8	1.561503E-2
9.450000E-8	1.520388E-2
9.455000E-8	1.482699E-2
9.460000E-8	1.432162E-2
9.465000E-8	1.388478E-2
9.470000E-8	1.367921E-2
9.475000E-8	1.361068E-2
9.480000E-8	1.354216E-2
9.485000E-8	1.355072E-2
9.490000E-8	1.362781E-2
9.495000E-8	1.362781E-2
9.500000E-8	1.363638E-2
9.505000E-8	1.373060E-2
9.510000E-8	1.379056E-2
9.515000E-8	1.370490E-2
9.520000E-8	1.357642E-2
9.525000E-8	1.355929E-2
9.530000E-8	1.368777E-2
9.535000E-8	1.381626E-2
9.540000E-8	1.386765E-2
9.545000E-8	1.397044E-2
9.550000E-8	1.421027E-2
9.555000E-8	1.446724E-2
9.560000E-8	1.465568E-2
9.565000E-8	1.491265E-2
9.570000E-8	1.521244E-2
9.575000E-8	1.538376E-2
9.580000E-8	1.542658E-2
9.585000E-8	1.539232E-2
9.590000E-8	1.527240E-2
9.595000E-8	1.506683E-2
9.600000E-8	1.482699E-2
9.605000E-8	1.457859E-2
9.610000E-8	1.428736E-2
9.615000E-8	1.391904E-2
9.620000E-8	1.355072E-2
9.625000E-8	1.331089E-2
9.630000E-8	1.319097E-2
9.635000E-8	1.303679E-2
9.640000E-8	1.279695E-2
9.645000E-8	1.258281E-2
9.650000E-8	1.250572E-2
9.655000E-8	1.251429E-2
9.660000E-8	1.251429E-2
9.665000E-8	1.248859E-2
9.670000E-8	1.256568E-2
9.675000E-8	1.263421E-2
9.680000E-8	1.260851E-2
9.685000E-8	1.265990E-2
9.690000E-8	1.289117E-2
9.695000E-8	1.301109E-2
9.700000E-8	1.286548E-2
9.705000E-8	1.273699E-2
9.710000E-8	1.277126E-2
9.715000E-8	1.279695E-2
9.720000E-8	1.275413E-2
9.725000E-8	1.276269E-2
9.730000E-8	1.283122E-2
9.735000E-8	1.289117E-2
9.740000E-8	1.296826E-2
9.745000E-8	1.316527E-2
9.750000E-8	1.343081E-2
9.755000E-8	1.362781E-2
9.760000E-8	1.376486E-2
9.765000E-8	1.391904E-2
9.770000E-8	1.401326E-2
9.775000E-8	1.398757E-2
9.780000E-8	1.391048E-2
9.785000E-8	1.378199E-2
9.790000E-8	1.349076E-2
9.795000E-8	1.305392E-2
9.800000E-8	1.257425E-2
9.805000E-8	1.222306E-2
9.810000E-8	1.200035E-2
9.815000E-8	1.172626E-2
9.820000E-8	1.139220E-2
9.825000E-8	1.123802E-2
9.830000E-8	1.134937E-2
9.835000E-8	1.140933E-2
9.840000E-8	1.135794E-2
9.845000E-8	1.145216E-2
9.850000E-8	1.168343E-2
9.855000E-8	1.178622E-2
9.860000E-8	1.174339E-2
9.865000E-8	1.181191E-2
9.870000E-8	1.206031E-2
9.875000E-8	1.224019E-2
9.880000E-8	1.226589E-2
9.885000E-8	1.237724E-2
9.890000E-8	1.275413E-2
9.895000E-8	1.321667E-2
9.900000E-8	1.362781E-2
9.905000E-8	1.397044E-2
9.910000E-8	1.428736E-2
9.915000E-8	1.452720E-2
9.920000E-8	1.462998E-2
9.925000E-8	1.458716E-2
9.930000E-8	1.446724E-2
9.935000E-8	1.425310E-2
9.940000E-8	1.386765E-2
9.945000E-8	1.338798E-2
9.950000E-8	1.295113E-2
9.955000E-8	1.259138E-2
9.960000E-8	1.230872E-2
9.965000E-8	1.212884E-2
9.970000E-8	1.203462E-2
9.975000E-8	1.200892E-2
9.980000E-8	1.208601E-2
9.985000E-8	1.224876E-2
9.990000E-8	1.246290E-2
9.995000E-8	1.262564E-2
1.000000E-7	1.259994E-2
1.000500E-7	1.247146E-2
1.001000E-7	1.237724E-2
1.001500E-7	1.231728E-2
1.002000E-7	1.217167E-2
1.002500E-7	1.192326E-2
1.003000E-7	1.167486E-2
1.003500E-7	1.145216E-2
1.004000E-7	1.136650E-2
1.004500E-7	1.145216E-2
1.005000E-7	1.160634E-2
1.005500E-7	1.173482E-2
1.006000E-7	1.188044E-2
1.006500E-7	1.211171E-2
1.007000E-7	1.244576E-2
1.007500E-7	1.280552E-2
1.008000E-7	1.307962E-2
1.008500E-7	1.322523E-2
1.009000E-7	1.324236E-2
1.009500E-7	1.309675E-2
1.010000E-7	1.281408E-2
1.010500E-7	1.249716E-2
1.011000E-7	1.209458E-2
1.011500E-7	1.160634E-2
1.012000E-7	1.115236E-2
1.012500E-7	1.079261E-2
1.013000E-7	1.048425E-2
1.013500E-7	1.027011E-2
1.014000E-7	1.022728E-2
1.014500E-7	1.025298E-2
1.015000E-7	1.028724E-2
1.015500E-7	1.038146E-2
1.016000E-7	1.059560E-2
1.016500E-7	1.092109E-2
1.017000E-7	1.119519E-2
1.017500E-7	1.135794E-2
1.018000E-7	1.150355E-2
1.018500E-7	1.164060E-2
1.019000E-7	1.174339E-2
1.019500E-7	1.184617E-2
1.020000E-7	1.192326E-2
1.020500E-7	1.193183E-2
1.021000E-7	1.189757E-2
1.021500E-7	1.188900E-2
1.022000E-7	1.194040E-2
1.022500E-7	1.208601E-2
1.023000E-7	1.230015E-2
1.023500E-7	1.250572E-2
1.024000E-7	1.276269E-2
1.024500E-7	1.308818E-2
1.025000E-7	1.335371E-2
1.025500E-7	1.349076E-2
1.026000E-7	1.349076E-2
1.026500E-7	1.327662E-2
1.027000E-7	1.290831E-2
1.027500E-7	1.246290E-2
1.028000E-7	1.196609E-2
1.028500E-7	1.150355E-2
1.029000E-7	1.110954E-2
1.029500E-7	1.066413E-2
1.030000E-7	1.017589E-2
1.030500E-7	9.978880E-3
1.031000E-7	1.009880E-2
1.031500E-7	1.023585E-2
1.032000E-7	1.040716E-2
1.032500E-7	1.078404E-2
1.033000E-7	1.123802E-2
1.033500E-7	1.161490E-2
1.034000E-7	1.203462E-2
1.034500E-7	1.257425E-2
1.035000E-7	1.301966E-2
1.035500E-7	1.334515E-2
1.036000E-7	1.361068E-2
1.036500E-7	1.383339E-2
1.037000E-7	1.394474E-2
1.037500E-7	1.400470E-2
1.038000E-7	1.404753E-2
1.038500E-7	1.389335E-2
1.039000E-7	1.350790E-2
1.039500E-7	1.314814E-2
1.040000E-7	1.289117E-2
1.040500E-7	1.254855E-2
1.041000E-7	1.221449E-2
1.041500E-7	1.200892E-2
1.042000E-7	1.181191E-2
1.042500E-7	1.156351E-2
1.043000E-7	1.142646E-2
1.043500E-7	1.139220E-2
1.044000E-7	1.138363E-2
1.044500E-7	1.138363E-2
1.045000E-7	1.133224E-2
1.045500E-7	1.116093E-2
1.046000E-7	1.102388E-2
1.046500E-7	1.093822E-2
1.047000E-7	1.080118E-2
1.047500E-7	1.058704E-2
1.048000E-7	1.038146E-2
1.048500E-7	1.021015E-2
1.049000E-7	1.016732E-2
1.049500E-7	1.027011E-2
1.050000E-7	1.039859E-2
1.050500E-7	1.058704E-2
1.051000E-7	1.087827E-2
1.051500E-7	1.107527E-2
1.052000E-7	1.122089E-2
1.052500E-7	1.147786E-2
1.053000E-7	1.176052E-2
1.053500E-7	1.190613E-2
1.054000E-7	1.201749E-2
1.054500E-7	1.210314E-2
1.055000E-7	1.203462E-2
1.055500E-7	1.190613E-2
1.056000E-7	1.182048E-2
1.056500E-7	1.166630E-2
1.057000E-7	1.148642E-2
1.057500E-7	1.136650E-2
1.058000E-7	1.128085E-2
1.058500E-7	1.122945E-2
1.059000E-7	1.123802E-2
1.059500E-7	1.114380E-2
1.060000E-7	1.095536E-2
1.060500E-7	1.089540E-2
1.061000E-7	1.096392E-2
1.061500E-7	1.102388E-2
1.062000E-7	1.102388E-2
1.062500E-7	1.099818E-2
1.063000E-7	1.097249E-2
1.063500E-7	1.094679E-2
1.064000E-7	1.088683E-2
1.064500E-7	1.081831E-2
1.065000E-7	1.082687E-2
1.065500E-7	1.082687E-2
1.066000E-7	1.071552E-2
1.066500E-7	1.059560E-2
1.067000E-7	1.056990E-2
1.067500E-7	1.055277E-2
1.068000E-7	1.056990E-2
1.068500E-7	1.066413E-2
1.069000E-7	1.079261E-2
1.069500E-7	1.077548E-2
1.070000E-7	1.069839E-2
1.070500E-7	1.080118E-2
1.071000E-7	1.103245E-2
1.071500E-7	1.104101E-2
1.072000E-7	1.080974E-2
1.072500E-7	1.067269E-2
1.073000E-7	1.070695E-2
1.073500E-7	1.067269E-2
1.074000E-7	1.051851E-2
1.074500E-7	1.040716E-2
1.075000E-7	1.034720E-2
1.075500E-7	1.028724E-2
1.076000E-7	1.023585E-2
1.076500E-7	1.021872E-2
1.077000E-7	1.023585E-2
1.077500E-7	1.017589E-2
1.078000E-7	1.004740E-2
1.078500E-7	9.987446E-3
1.079000E-7	1.004740E-2
1.079500E-7	1.010736E-2
1.080000E-7	1.015876E-2
1.080500E-7	1.013306E-2
1.081000E-7	1.003027E-2
1.081500E-7	9.936052E-3
1.082000E-7	9.910356E-3
1.082500E-7	9.850397E-3
1.083000E-7	9.781872E-3
1.083500E-7	9.781872E-3
1.084000E-7	9.781872E-3
1.084500E-7	9.773307E-3
1.085000E-7	9.927487E-3
1.085500E-7	1.016732E-2
1.086000E-7	1.032150E-2
1.086500E-7	1.047568E-2
1.087000E-7	1.073265E-2
1.087500E-7	1.095536E-2
1.088000E-7	1.108384E-2
1.088500E-7	1.125515E-2
1.089000E-7	1.145216E-2
1.089500E-7	1.148642E-2
1.090000E-7	1.137507E-2
1.090500E-7	1.129798E-2
1.091000E-7	1.132367E-2
1.091500E-7	1.133224E-2
1.092000E-7	1.118663E-2
1.092500E-7	1.092966E-2
1.093000E-7	1.068126E-2
1.093500E-7	1.041572E-2
1.094000E-7	1.016732E-2
1.094500E-7	9.978880E-3
1.095000E-7	9.739044E-3
1.095500E-7	9.456381E-3
1.096000E-7	9.413553E-3
1.096500E-7	9.619126E-3
1.097000E-7	9.739044E-3
1.097500E-7	9.799003E-3
1.098000E-7	1.004740E-2
1.098500E-7	1.037290E-2
1.099000E-7	1.054421E-2
1.099500E-7	1.060417E-2
1.100000E-7	1.067269E-2
1.100500E-7	1.074122E-2
1.101000E-7	1.078404E-2
1.101500E-7	1.072408E-2
1.102000E-7	1.056990E-2
1.102500E-7	1.044999E-2
1.103000E-7	1.042429E-2
1.103500E-7	1.033007E-2
1.104000E-7	1.019302E-2
1.104500E-7	1.015876E-2
1.105000E-7	1.009880E-2
1.105500E-7	9.841831E-3
1.106000E-7	9.542036E-3
1.106500E-7	9.422118E-3
1.107000E-7	9.422118E-3
1.107500E-7	9.336463E-3
1.108000E-7	9.122323E-3
1.108500E-7	8.908184E-3
1.109000E-7	8.831094E-3
1.109500E-7	8.865356E-3
1.110000E-7	8.873922E-3
1.110500E-7	8.908184E-3
1.111000E-7	9.088061E-3
1.111500E-7	9.225110E-3
1.112000E-7	9.216545E-3
1.112500E-7	9.379290E-3
1.113000E-7	9.747610E-3
1.113500E-7	9.996011E-3
1.114000E-7	1.004740E-2
1.114500E-7	1.009023E-2
1.115000E-7	1.019302E-2
1.115500E-7	1.024441E-2
1.116000E-7	1.031294E-2
1.116500E-7	1.041572E-2
1.117000E-7	1.043286E-2
1.117500E-7	1.033007E-2
1.118000E-7	1.024441E-2
1.118500E-7	1.027868E-2
1.119000E-7	1.030437E-2
1.119500E-7	1.011593E-2
1.120000E-7	9.841831E-3
1.120500E-7	9.653389E-3
1.121000E-7	9.473512E-3
1.121500E-7	9.250807E-3
1.122000E-7	9.113758E-3
1.122500E-7	9.088061E-3
1.123000E-7	9.028102E-3
1.123500E-7	8.959577E-3
1.124000E-7	9.028102E-3
1.124500E-7	9.250807E-3
1.125000E-7	9.464946E-3
1.125500E-7	9.542036E-3
1.126000E-7	9.490643E-3
1.126500E-7	9.473512E-3
1.127000E-7	9.567733E-3
1.127500E-7	9.661954E-3
1.128000E-7	9.593430E-3
1.128500E-7	9.456381E-3
1.129000E-7	9.319331E-3
1.129500E-7	9.190848E-3
1.130000E-7	9.113758E-3
1.130500E-7	9.156586E-3
1.131000E-7	9.250807E-3
1.131500E-7	9.293635E-3
1.132000E-7	9.319331E-3
1.132500E-7	9.353594E-3
1.133000E-7	9.310766E-3
1.133500E-7	9.250807E-3
1.134000E-7	9.302200E-3
1.134500E-7	9.430684E-3
1.135000E-7	9.447815E-3
1.135500E-7	9.362159E-3
1.136000E-7	9.302200E-3
1.136500E-7	9.387856E-3
1.137000E-7	9.576299E-3
1.137500E-7	9.730479E-3
1.138000E-7	9.833266E-3
1.138500E-7	1.000458E-2
1.139000E-7	1.023585E-2
1.139500E-7	1.031294E-2
1.140000E-7	1.029581E-2
1.140500E-7	1.034720E-2
1.141000E-7	1.033007E-2
1.141500E-7	1.007310E-2
1.142000E-7	9.807569E-3
1.142500E-7	9.670520E-3
1.143000E-7	9.524905E-3
1.143500E-7	9.336463E-3
1.144000E-7	9.225110E-3
1.144500E-7	9.225110E-3
1.145000E-7	9.370725E-3
1.145500E-7	9.644823E-3
1.146000E-7	9.893225E-3
1.146500E-7	1.003884E-2
1.147000E-7	1.012450E-2
1.147500E-7	1.008167E-2
1.148000E-7	9.893225E-3
1.148500E-7	9.661954E-3
1.149000E-7	9.404987E-3
1.149500E-7	8.976709E-3
1.150000E-7	8.462774E-3
1.150500E-7	8.060193E-3
1.151000E-7	7.786094E-3
1.151500E-7	7.614783E-3
1.152000E-7	7.589086E-3
1.152500E-7	7.751832E-3
1.153000E-7	7.983102E-3
1.153500E-7	8.171545E-3
1.154000E-7	8.351422E-3
1.154500E-7	8.762569E-3
1.155000E-7	9.225110E-3
1.155500E-7	9.370725E-3
1.156000E-7	9.327897E-3
1.156500E-7	9.456381E-3
1.157000E-7	9.636258E-3
1.157500E-7	9.619126E-3
1.158000E-7	9.567733E-3
1.158500E-7	9.670520E-3
1.159000E-7	9.816134E-3
1.159500E-7	9.910356E-3
1.160000E-7	1.003027E-2
1.160500E-7	1.033007E-2
1.161000E-7	1.069839E-2
1.161500E-7	1.086970E-2
1.162000E-7	1.076691E-2
1.162500E-7	1.065556E-2
1.163000E-7	1.064699E-2
1.163500E-7	1.050138E-2
1.164000E-7	1.019302E-2
1.164500E-7	1.000458E-2
1.165000E-7	9.893225E-3
1.165500E-7	9.636258E-3
1.166000E-7	9.353594E-3
1.166500E-7	9.302200E-3
1.167000E-7	9.370725E-3
1.167500E-7	9.336463E-3
1.168000E-7	9.225110E-3
1.168500E-7	9.182282E-3
1.169000E-7	9.190848E-3
1.169500E-7	9.182282E-3
1.170000E-7	9.173717E-3
1.170500E-7	9.130889E-3
1.171000E-7	9.036668E-3
1.171500E-7	8.951012E-3
1.172000E-7	8.891053E-3
1.172500E-7	8.925315E-3
1.173000E-7	9.088061E-3
1.173500E-7	9.259372E-3
1.174000E-7	9.345028E-3
1.174500E-7	9.413553E-3
1.175000E-7	9.447815E-3
1.175500E-7	9.319331E-3
1.176000E-7	9.062364E-3
1.176500E-7	8.822528E-3
1.177000E-7	8.462774E-3
1.177500E-7	7.854619E-3
1.178000E-7	7.246463E-3
1.178500E-7	6.895275E-3
1.179000E-7	6.681136E-3
1.179500E-7	6.398472E-3
1.180000E-7	6.192898E-3
1.180500E-7	6.304251E-3
1.181000E-7	6.612611E-3
1.181500E-7	6.878144E-3
1.182000E-7	7.177939E-3
1.182500E-7	7.529127E-3
1.183000E-7	7.751832E-3
1.183500E-7	7.863184E-3
1.184000E-7	7.948840E-3
1.184500E-7	7.948840E-3
1.185000E-7	7.863184E-3
1.185500E-7	7.863184E-3
1.186000E-7	7.880316E-3
1.186500E-7	7.751832E-3
1.187000E-7	7.666176E-3
1.187500E-7	7.837488E-3
1.188000E-7	8.051627E-3
1.188500E-7	8.051627E-3
1.189000E-7	8.051627E-3
1.189500E-7	8.111586E-3
1.190000E-7	7.991668E-3
1.190500E-7	7.760398E-3
1.191000E-7	7.666176E-3
1.191500E-7	7.614783E-3
1.192000E-7	7.409209E-3
1.192500E-7	7.220767E-3
1.193000E-7	7.169373E-3
1.193500E-7	7.143677E-3
1.194000E-7	7.160808E-3
1.194500E-7	7.409209E-3
1.195000E-7	7.717570E-3
1.195500E-7	7.880316E-3
1.196000E-7	8.085889E-3
1.196500E-7	8.419947E-3
1.197000E-7	8.582692E-3
1.197500E-7	8.522733E-3
1.198000E-7	8.565561E-3
1.198500E-7	8.762569E-3
1.199000E-7	8.856791E-3
1.199500E-7	8.805397E-3
1.200000E-7	8.788266E-3
1.200500E-7	8.865356E-3
1.201000E-7	8.908184E-3
1.201500E-7	8.873922E-3
1.202000E-7	8.848225E-3
1.202500E-7	8.916750E-3
1.203000E-7	9.070930E-3
1.203500E-7	9.079495E-3
1.204000E-7	8.839659E-3
1.204500E-7	8.548430E-3
1.205000E-7	8.342856E-3
1.205500E-7	8.034496E-3
1.206000E-7	7.563390E-3
1.206500E-7	7.195070E-3
1.207000E-7	6.955234E-3
1.207500E-7	6.672570E-3
1.208000E-7	6.466997E-3
1.208500E-7	6.475562E-3
1.209000E-7	6.621177E-3
1.209500E-7	6.826750E-3
1.210000E-7	7.058021E-3
1.210500E-7	7.297857E-3
1.211000E-7	7.589086E-3
1.211500E-7	8.008799E-3
1.212000E-7	8.411381E-3
1.212500E-7	8.582692E-3
1.213000E-7	8.625520E-3
1.213500E-7	8.668348E-3
1.214000E-7	8.676914E-3
1.214500E-7	8.634086E-3
1.215000E-7	8.548430E-3
1.215500E-7	8.428512E-3
1.216000E-7	8.317160E-3
1.216500E-7	8.274332E-3
1.217000E-7	8.171545E-3
1.217500E-7	8.025930E-3
1.218000E-7	7.957406E-3
1.218500E-7	7.974537E-3
1.219000E-7	7.923143E-3
1.219500E-7	7.811791E-3
1.220000E-7	7.743266E-3
1.220500E-7	7.717570E-3
1.221000E-7	7.726135E-3
1.221500E-7	7.691873E-3
1.222000E-7	7.606217E-3
1.222500E-7	7.614783E-3
1.223000E-7	7.811791E-3
1.223500E-7	7.991668E-3
1.224000E-7	8.043061E-3
1.224500E-7	8.128717E-3
1.225000E-7	8.317160E-3
1.225500E-7	8.437078E-3
1.226000E-7	8.531299E-3
1.226500E-7	8.779700E-3
1.227000E-7	9.070930E-3
1.227500E-7	9.113758E-3
1.228000E-7	9.036668E-3
1.228500E-7	9.045233E-3
1.229000E-7	9.079495E-3
1.229500E-7	9.062364E-3
1.230000E-7	9.028102E-3
1.230500E-7	8.976709E-3
1.231000E-7	8.976709E-3
1.231500E-7	9.079495E-3
1.232000E-7	9.088061E-3
1.232500E-7	8.942446E-3
1.233000E-7	8.891053E-3
1.233500E-7	8.873922E-3
1.234000E-7	8.702610E-3
1.234500E-7	8.445643E-3
1.235000E-7	8.248635E-3
1.235500E-7	8.051627E-3
1.236000E-7	7.837488E-3
1.236500E-7	7.623349E-3
1.237000E-7	7.332119E-3
1.237500E-7	7.049455E-3
1.238000E-7	6.912406E-3
1.238500E-7	6.886709E-3
1.239000E-7	6.903841E-3
1.239500E-7	7.023759E-3
1.240000E-7	7.126545E-3
1.240500E-7	7.143677E-3
1.241000E-7	7.203636E-3
1.241500E-7	7.357816E-3
1.242000E-7	7.520562E-3
1.242500E-7	7.674742E-3
1.243000E-7	7.786094E-3
1.243500E-7	7.794660E-3
1.244000E-7	7.786094E-3
1.244500E-7	7.863184E-3
1.245000E-7	7.940275E-3
1.245500E-7	7.880316E-3
1.246000E-7	7.734701E-3
1.246500E-7	7.511996E-3
1.247000E-7	7.246463E-3
1.247500E-7	6.972365E-3
1.248000E-7	6.775357E-3
1.248500E-7	6.629742E-3
1.249000E-7	6.458431E-3
1.249500E-7	6.244292E-3
1.250000E-7	6.055849E-3
1.250500E-7	6.038718E-3
1.251000E-7	6.201464E-3
1.251500E-7	6.304251E-3
1.252000E-7	6.269988E-3
1.252500E-7	6.295685E-3
1.253000E-7	6.466997E-3
1.253500E-7	6.646874E-3
1.254000E-7	6.783923E-3
1.254500E-7	6.835316E-3
1.255000E-7	6.749660E-3
1.255500E-7	6.561218E-3
1.256000E-7	6.458431E-3
1.256500E-7	6.441300E-3
1.257000E-7	6.407038E-3
1.257500E-7	6.355644E-3
1.258000E-7	6.364210E-3
1.258500E-7	6.407038E-3
1.259000E-7	6.458431E-3
1.259500E-7	6.569783E-3
1.260000E-7	6.689701E-3
1.260500E-7	6.869578E-3
1.261000E-7	7.177939E-3
1.261500E-7	7.443472E-3
1.262000E-7	7.520562E-3
1.262500E-7	7.631914E-3
1.263000E-7	7.846053E-3
1.263500E-7	7.871750E-3
1.264000E-7	7.760398E-3
1.264500E-7	7.777529E-3
1.265000E-7	7.786094E-3
1.265500E-7	7.563390E-3
1.266000E-7	7.297857E-3
1.266500E-7	7.126545E-3
1.267000E-7	6.929537E-3
1.267500E-7	6.681136E-3
1.268000E-7	6.535521E-3
1.268500E-7	6.526956E-3
1.269000E-7	6.552652E-3
1.269500E-7	6.535521E-3
1.270000E-7	6.518390E-3
1.270500E-7	6.552652E-3
1.271000E-7	6.664005E-3
1.271500E-7	6.766791E-3
1.272000E-7	6.723964E-3
1.272500E-7	6.569783E-3
1.273000E-7	6.466997E-3
1.273500E-7	6.398472E-3
1.274000E-7	6.261423E-3
1.274500E-7	6.132939E-3
1.275000E-7	6.132939E-3
1.275500E-7	6.167202E-3
1.276000E-7	6.115808E-3
1.276500E-7	6.150070E-3
1.277000E-7	6.389906E-3
1.277500E-7	6.629742E-3
1.278000E-7	6.732529E-3
1.278500E-7	6.792488E-3
1.279000E-7	6.903841E-3
1.279500E-7	6.972365E-3
1.280000E-7	6.929537E-3
1.280500E-7	6.886709E-3
1.281000E-7	6.912406E-3
1.281500E-7	6.886709E-3
1.282000E-7	6.835316E-3
1.282500E-7	6.878144E-3
1.283000E-7	6.955234E-3
1.283500E-7	6.998062E-3
1.284000E-7	7.083718E-3
1.284500E-7	7.195070E-3
1.285000E-7	7.152242E-3
1.285500E-7	6.980931E-3
1.286000E-7	6.852447E-3
1.286500E-7	6.706833E-3
1.287000E-7	6.407038E-3
1.287500E-7	6.013021E-3
1.288000E-7	5.619005E-3
1.288500E-7	5.327776E-3
1.289000E-7	5.199292E-3
1.289500E-7	5.105071E-3
1.290000E-7	4.899497E-3
1.290500E-7	4.848104E-3
1.291000E-7	5.070809E-3
1.291500E-7	5.327776E-3
1.292000E-7	5.507653E-3
1.292500E-7	5.858841E-3
1.293000E-7	6.269988E-3
1.293500E-7	6.578349E-3
1.294000E-7	6.843882E-3
1.294500E-7	7.135111E-3
1.295000E-7	7.323554E-3
1.295500E-7	7.417775E-3
1.296000E-7	7.460603E-3
1.296500E-7	7.477734E-3
1.297000E-7	7.409209E-3
1.297500E-7	7.229332E-3
1.298000E-7	6.972365E-3
1.298500E-7	6.723964E-3
1.299000E-7	6.518390E-3
1.299500E-7	6.235726E-3
1.300000E-7	5.875972E-3
1.300500E-7	5.636136E-3
1.301000E-7	5.576177E-3
1.301500E-7	5.576177E-3
1.302000E-7	5.619005E-3
1.302500E-7	5.807448E-3
1.303000E-7	6.072980E-3
1.303500E-7	6.312816E-3
1.304000E-7	6.518390E-3
1.304500E-7	6.775357E-3
1.305000E-7	7.058021E-3
1.305500E-7	7.203636E-3
1.306000E-7	7.169373E-3
1.306500E-7	7.083718E-3
1.307000E-7	6.972365E-3
1.307500E-7	6.826750E-3
1.308000E-7	6.655439E-3
1.308500E-7	6.535521E-3
1.309000E-7	6.561218E-3
1.309500E-7	6.621177E-3
1.310000E-7	6.586915E-3
1.310500E-7	6.578349E-3
1.311000E-7	6.783923E-3
1.311500E-7	6.955234E-3
1.312000E-7	6.843882E-3
1.312500E-7	6.655439E-3
1.313000E-7	6.569783E-3
1.313500E-7	6.372775E-3
1.314000E-7	5.978759E-3
1.314500E-7	5.584743E-3
1.315000E-7	5.182161E-3
1.315500E-7	4.719620E-3
1.316000E-7	4.385563E-3
1.316500E-7	4.257079E-3
1.317000E-7	4.179989E-3
1.317500E-7	4.111465E-3
1.318000E-7	4.085768E-3
1.318500E-7	4.222817E-3
1.319000E-7	4.582571E-3
1.319500E-7	4.993718E-3
1.320000E-7	5.327776E-3
1.320500E-7	5.670399E-3
1.321000E-7	5.987325E-3
1.321500E-7	6.081546E-3
1.322000E-7	6.081546E-3
1.322500E-7	6.192898E-3
1.323000E-7	6.295685E-3
1.323500E-7	6.175767E-3
1.324000E-7	6.030152E-3
1.324500E-7	6.004456E-3
1.325000E-7	6.055849E-3
1.325500E-7	6.038718E-3
1.326000E-7	5.935931E-3
1.326500E-7	5.884538E-3
1.327000E-7	5.961628E-3
1.327500E-7	6.013021E-3
1.328000E-7	5.927366E-3
1.328500E-7	5.884538E-3
1.329000E-7	5.995890E-3
1.329500E-7	6.013021E-3
1.330000E-7	5.875972E-3
1.330500E-7	5.824579E-3
1.331000E-7	5.927366E-3
1.331500E-7	6.021587E-3
1.332000E-7	6.021587E-3
1.332500E-7	5.953062E-3
1.333000E-7	5.875972E-3
1.333500E-7	5.764620E-3
1.334000E-7	5.567612E-3
1.334500E-7	5.370604E-3
1.335000E-7	5.233554E-3
1.335500E-7	5.122202E-3
1.336000E-7	4.959456E-3
1.336500E-7	4.873800E-3
1.337000E-7	4.848104E-3
1.337500E-7	4.805276E-3
1.338000E-7	4.916628E-3
1.338500E-7	5.165030E-3
1.339000E-7	5.284948E-3
1.339500E-7	5.353472E-3
1.340000E-7	5.661833E-3
1.340500E-7	6.064415E-3
1.341000E-7	6.295685E-3
1.341500E-7	6.381341E-3
1.342000E-7	6.466997E-3
1.342500E-7	6.518390E-3
1.343000E-7	6.535521E-3
1.343500E-7	6.561218E-3
1.344000E-7	6.612611E-3
1.344500E-7	6.715398E-3
1.345000E-7	6.792488E-3
1.345500E-7	6.723964E-3
1.346000E-7	6.561218E-3
1.346500E-7	6.501259E-3
1.347000E-7	6.552652E-3
1.347500E-7	6.552652E-3
1.348000E-7	6.424169E-3
1.348500E-7	6.278554E-3
1.349000E-7	6.150070E-3
1.349500E-7	6.004456E-3
1.350000E-7	5.824579E-3
1.350500E-7	5.730358E-3
1.351000E-7	5.730358E-3
1.351500E-7	5.696095E-3
1.352000E-7	5.636136E-3
1.352500E-7	5.747489E-3
1.353000E-7	6.081546E-3
1.353500E-7	6.381341E-3
1.354000E-7	6.509824E-3
1.354500E-7	6.646874E-3
1.355000E-7	6.912406E-3
1.355500E-7	7.075152E-3
1.356000E-7	6.989496E-3
1.356500E-7	6.869578E-3
1.357000E-7	6.783923E-3
1.357500E-7	6.475562E-3
1.358000E-7	5.884538E-3
1.358500E-7	5.344907E-3
1.359000E-7	4.993718E-3
1.359500E-7	4.668227E-3
1.360000E-7	4.308473E-3
1.360500E-7	4.060071E-3
1.361000E-7	3.948719E-3
1.361500E-7	3.837367E-3
1.362000E-7	3.743145E-3
1.362500E-7	3.768842E-3
1.363000E-7	3.863063E-3
1.363500E-7	3.871629E-3
1.364000E-7	3.905891E-3
1.364500E-7	4.111465E-3
1.365000E-7	4.325604E-3
1.365500E-7	4.351301E-3
1.366000E-7	4.359866E-3
1.366500E-7	4.514047E-3
1.367000E-7	4.685358E-3
1.367500E-7	4.736751E-3
1.368000E-7	4.736751E-3
1.368500E-7	4.745317E-3
1.369000E-7	4.822407E-3
1.369500E-7	4.942325E-3
1.370000E-7	4.993718E-3
1.370500E-7	5.045112E-3
1.371000E-7	5.182161E-3
1.371500E-7	5.242120E-3
1.372000E-7	5.165030E-3
1.372500E-7	5.207858E-3
1.373000E-7	5.456259E-3
1.373500E-7	5.687530E-3
1.374000E-7	5.833144E-3
1.374500E-7	6.038718E-3
1.375000E-7	6.218595E-3
1.375500E-7	6.261423E-3
1.376000E-7	6.329947E-3
1.376500E-7	6.432734E-3
1.377000E-7	6.415603E-3
1.377500E-7	6.338513E-3
1.378000E-7	6.295685E-3
1.378500E-7	6.227161E-3
1.379000E-7	6.030152E-3
1.379500E-7	5.850275E-3
1.380000E-7	5.756054E-3
1.380500E-7	5.610440E-3
1.381000E-7	5.387735E-3
1.381500E-7	5.156464E-3
1.382000E-7	4.985153E-3
1.382500E-7	4.882366E-3
1.383000E-7	4.856669E-3
1.383500E-7	4.848104E-3
1.384000E-7	4.890932E-3
1.384500E-7	5.002284E-3
1.385000E-7	5.122202E-3
1.385500E-7	5.250686E-3
1.386000E-7	5.413431E-3
1.386500E-7	5.550481E-3
1.387000E-7	5.696095E-3
1.387500E-7	5.875972E-3
1.388000E-7	6.004456E-3
1.388500E-7	6.047284E-3
1.389000E-7	6.081546E-3
1.389500E-7	5.995890E-3
1.390000E-7	5.713226E-3
1.390500E-7	5.481956E-3
1.391000E-7	5.344907E-3
1.391500E-7	5.096505E-3
1.392000E-7	4.830973E-3
1.392500E-7	4.805276E-3
1.393000E-7	4.830973E-3
1.393500E-7	4.676792E-3
1.394000E-7	4.591137E-3
1.394500E-7	4.762448E-3
1.395000E-7	4.908063E-3
1.395500E-7	4.830973E-3
1.396000E-7	4.685358E-3
1.396500E-7	4.659661E-3
1.397000E-7	4.676792E-3
1.397500E-7	4.676792E-3
1.398000E-7	4.702489E-3
1.398500E-7	4.813842E-3
1.399000E-7	4.968022E-3
1.399500E-7	5.113636E-3
1.400000E-7	5.233554E-3
1.400500E-7	5.404866E-3
1.401000E-7	5.721792E-3
1.401500E-7	6.021587E-3
1.402000E-7	6.072980E-3
1.402500E-7	5.978759E-3
1.403000E-7	5.867407E-3
1.403500E-7	5.644702E-3
1.404000E-7	5.293513E-3
1.404500E-7	4.985153E-3
1.405000E-7	4.719620E-3
1.405500E-7	4.325604E-3
1.406000E-7	3.965850E-3
1.406500E-7	3.880194E-3
1.407000E-7	4.000112E-3
1.407500E-7	4.154293E-3
1.408000E-7	4.308473E-3
1.408500E-7	4.522612E-3
1.409000E-7	4.839538E-3
1.409500E-7	5.147899E-3
1.410000E-7	5.310645E-3
1.410500E-7	5.344907E-3
1.411000E-7	5.387735E-3
1.411500E-7	5.370604E-3
1.412000E-7	5.276382E-3
1.412500E-7	5.250686E-3
1.413000E-7	5.310645E-3
1.413500E-7	5.233554E-3
1.414000E-7	5.070809E-3
1.414500E-7	5.027981E-3
1.415000E-7	5.173595E-3
1.415500E-7	5.396300E-3
1.416000E-7	5.473390E-3
1.416500E-7	5.413431E-3
1.417000E-7	5.387735E-3
1.417500E-7	5.379169E-3
1.418000E-7	5.224989E-3
1.418500E-7	5.053677E-3
1.419000E-7	4.968022E-3
1.419500E-7	4.771014E-3
1.420000E-7	4.479784E-3
1.420500E-7	4.325604E-3
1.421000E-7	4.274211E-3
1.421500E-7	4.120030E-3
1.422000E-7	4.008678E-3
1.422500E-7	3.965850E-3
1.423000E-7	3.854498E-3
1.423500E-7	3.657490E-3
1.424000E-7	3.554703E-3
1.424500E-7	3.546137E-3
1.425000E-7	3.606096E-3
1.425500E-7	3.700317E-3
1.426000E-7	3.777408E-3
1.426500E-7	3.905891E-3
1.427000E-7	4.214252E-3
1.427500E-7	4.591137E-3
1.428000E-7	4.822407E-3
1.428500E-7	4.916628E-3
1.429000E-7	4.968022E-3
1.429500E-7	4.916628E-3
1.430000E-7	4.693924E-3
1.430500E-7	4.496915E-3
1.431000E-7	4.428391E-3
1.431500E-7	4.282776E-3
1.432000E-7	4.017243E-3
1.432500E-7	3.863063E-3
1.433000E-7	4.025809E-3
1.433500E-7	4.299907E-3
1.434000E-7	4.496915E-3
1.434500E-7	4.685358E-3
1.435000E-7	4.890932E-3
1.435500E-7	4.985153E-3
1.436000E-7	4.925194E-3
1.436500E-7	4.873800E-3
1.437000E-7	4.865235E-3
1.437500E-7	4.659661E-3
1.438000E-7	4.299907E-3
1.438500E-7	4.085768E-3
1.439000E-7	4.060071E-3
1.439500E-7	4.017243E-3
1.440000E-7	4.042940E-3
1.440500E-7	4.299907E-3
1.441000E-7	4.633965E-3
1.441500E-7	4.908063E-3
1.442000E-7	5.224989E-3
1.442500E-7	5.610440E-3
1.443000E-7	5.884538E-3
1.443500E-7	5.970193E-3
1.444000E-7	5.918800E-3
1.444500E-7	5.798882E-3
1.445000E-7	5.559046E-3
1.445500E-7	5.267817E-3
1.446000E-7	5.010850E-3
1.446500E-7	4.771014E-3
1.447000E-7	4.505481E-3
1.447500E-7	4.214252E-3
1.448000E-7	4.042940E-3
1.448500E-7	4.094334E-3
1.449000E-7	4.291342E-3
1.449500E-7	4.471219E-3
1.450000E-7	4.616833E-3
1.450500E-7	4.805276E-3
1.451000E-7	5.002284E-3
1.451500E-7	5.087940E-3
1.452000E-7	5.130768E-3
1.452500E-7	5.156464E-3
1.453000E-7	5.130768E-3
1.453500E-7	5.010850E-3
1.454000E-7	4.788145E-3
1.454500E-7	4.574006E-3
1.455000E-7	4.411260E-3
1.455500E-7	4.222817E-3
1.456000E-7	3.957284E-3
1.456500E-7	3.717449E-3
1.457000E-7	3.580399E-3
1.457500E-7	3.546137E-3
1.458000E-7	3.537572E-3
1.458500E-7	3.511875E-3
1.459000E-7	3.486178E-3
1.459500E-7	3.469047E-3
1.460000E-7	3.426219E-3
1.460500E-7	3.366260E-3
1.461000E-7	3.417654E-3
1.461500E-7	3.571834E-3
1.462000E-7	3.657490E-3
1.462500E-7	3.648924E-3
1.463000E-7	3.828801E-3
1.463500E-7	4.214252E-3
1.464000E-7	4.479784E-3
1.464500E-7	4.582571E-3
1.465000E-7	4.702489E-3
1.465500E-7	4.890932E-3
1.466000E-7	5.002284E-3
1.466500E-7	5.087940E-3
1.467000E-7	5.130768E-3
1.467500E-7	5.027981E-3
1.468000E-7	4.805276E-3
1.468500E-7	4.565440E-3
1.469000E-7	4.385563E-3
1.469500E-7	4.231383E-3
1.470000E-7	4.051506E-3
1.470500E-7	3.880194E-3
1.471000E-7	3.820235E-3
1.471500E-7	3.794539E-3
1.472000E-7	3.743145E-3
1.472500E-7	3.820235E-3
1.473000E-7	3.965850E-3
1.473500E-7	3.931588E-3
1.474000E-7	3.760276E-3
1.474500E-7	3.717449E-3
1.475000E-7	3.717449E-3
1.475500E-7	3.546137E-3
1.476000E-7	3.331998E-3
1.476500E-7	3.246342E-3
1.477000E-7	3.143555E-3
1.477500E-7	2.929416E-3
1.478000E-7	2.758105E-3
1.478500E-7	2.852326E-3
1.479000E-7	3.092162E-3
1.479500E-7	3.194949E-3
1.480000E-7	3.194949E-3
1.480500E-7	3.306301E-3
1.481000E-7	3.520440E-3
1.481500E-7	3.691752E-3
1.482000E-7	3.811670E-3
1.482500E-7	3.914457E-3
1.483000E-7	3.948719E-3
1.483500E-7	3.948719E-3
1.484000E-7	3.991547E-3
1.484500E-7	4.094334E-3
1.485000E-7	4.188555E-3
1.485500E-7	4.257079E-3
1.486000E-7	4.231383E-3
1.486500E-7	4.188555E-3
1.487000E-7	4.265645E-3
1.487500E-7	4.454088E-3
1.488000E-7	4.479784E-3
1.488500E-7	4.308473E-3
1.489000E-7	4.188555E-3
1.489500E-7	4.145727E-3
1.490000E-7	4.017243E-3
1.490500E-7	3.914457E-3
1.491000E-7	3.931588E-3
1.491500E-7	3.871629E-3
1.492000E-7	3.708883E-3
1.492500E-7	3.700317E-3
1.493000E-7	3.803104E-3
1.493500E-7	3.803104E-3
1.494000E-7	3.803104E-3
1.494500E-7	3.957284E-3
1.495000E-7	4.017243E-3
1.495500E-7	3.923022E-3
1.496000E-7	3.888760E-3
1.496500E-7	3.931588E-3
1.497000E-7	3.923022E-3
1.497500E-7	3.828801E-3
1.498000E-7	3.751711E-3
1.498500E-7	3.717449E-3
1.499000E-7	3.683186E-3
1.499500E-7	3.666055E-3
1.500000E-7	3.666055E-3
1.500500E-7	3.717449E-3
1.501000E-7	3.726014E-3
1.501500E-7	3.623227E-3
1.502000E-7	3.554703E-3
1.502500E-7	3.597531E-3
1.503000E-7	3.571834E-3
1.503500E-7	3.400522E-3
1.504000E-7	3.237777E-3
1.504500E-7	3.177818E-3
1.505000E-7	3.152121E-3
1.505500E-7	3.169252E-3
1.506000E-7	3.272039E-3
1.506500E-7	3.443350E-3
1.507000E-7	3.614662E-3
1.507500E-7	3.726014E-3
1.508000E-7	3.717449E-3
1.508500E-7	3.768842E-3
1.509000E-7	4.017243E-3
1.509500E-7	4.188555E-3
1.510000E-7	4.094334E-3
1.510500E-7	4.017243E-3
1.511000E-7	4.120030E-3
1.511500E-7	4.179989E-3
1.512000E-7	4.137161E-3
1.512500E-7	4.068637E-3
1.513000E-7	3.923022E-3
1.513500E-7	3.734580E-3
1.514000E-7	3.614662E-3
1.514500E-7	3.520440E-3
1.515000E-7	3.400522E-3
1.515500E-7	3.434785E-3
1.516000E-7	3.546137E-3
1.516500E-7	3.571834E-3
1.517000E-7	3.631793E-3
1.517500E-7	3.897325E-3
1.518000E-7	4.154293E-3
1.518500E-7	4.351301E-3
1.519000E-7	4.582571E-3
1.519500E-7	4.728186E-3
1.520000E-7	4.779579E-3
1.520500E-7	4.908063E-3
1.521000E-7	4.976587E-3
1.521500E-7	4.788145E-3
1.522000E-7	4.591137E-3
1.522500E-7	4.462653E-3
1.523000E-7	4.257079E-3
1.523500E-7	4.051506E-3
1.524000E-7	4.008678E-3
1.524500E-7	3.957284E-3
1.525000E-7	3.820235E-3
1.525500E-7	3.777408E-3
1.526000E-7	3.785973E-3
1.526500E-7	3.785973E-3
1.527000E-7	3.794539E-3
1.527500E-7	3.726014E-3
1.528000E-7	3.571834E-3
1.528500E-7	3.546137E-3
1.529000E-7	3.597531E-3
1.529500E-7	3.494744E-3
1.530000E-7	3.314867E-3
1.530500E-7	3.229211E-3
1.531000E-7	3.194949E-3
1.531500E-7	3.194949E-3
1.532000E-7	3.340563E-3
1.532500E-7	3.546137E-3
1.533000E-7	3.674621E-3
1.533500E-7	3.811670E-3
1.534000E-7	4.000112E-3
1.534500E-7	4.111465E-3
1.535000E-7	4.085768E-3
1.535500E-7	4.094334E-3
1.536000E-7	4.120030E-3
1.536500E-7	3.974416E-3
1.537000E-7	3.683186E-3
1.537500E-7	3.400522E-3
1.538000E-7	3.083596E-3
1.538500E-7	2.809498E-3
1.539000E-7	2.723842E-3
1.539500E-7	2.740974E-3
1.540000E-7	2.681015E-3
1.540500E-7	2.740974E-3
1.541000E-7	3.057900E-3
1.541500E-7	3.366260E-3
1.542000E-7	3.503309E-3
1.542500E-7	3.674621E-3
1.543000E-7	3.888760E-3
1.543500E-7	3.931588E-3
1.544000E-7	3.854498E-3
1.544500E-7	3.837367E-3
1.545000E-7	3.948719E-3
1.545500E-7	4.077202E-3
1.546000E-7	4.060071E-3
1.546500E-7	3.931588E-3
1.547000E-7	3.948719E-3
1.547500E-7	4.102899E-3
1.548000E-7	4.179989E-3
1.548500E-7	4.248514E-3
1.549000E-7	4.351301E-3
1.549500E-7	4.428391E-3
1.550000E-7	4.479784E-3
1.550500E-7	4.676792E-3
1.551000E-7	4.890932E-3
1.551500E-7	4.916628E-3
1.552000E-7	4.873800E-3
1.552500E-7	4.925194E-3
1.553000E-7	4.925194E-3
1.553500E-7	4.813842E-3
1.554000E-7	4.668227E-3
1.554500E-7	4.454088E-3
1.555000E-7	4.188555E-3
1.555500E-7	3.871629E-3
1.556000E-7	3.580399E-3
1.556500E-7	3.349129E-3
1.557000E-7	3.194949E-3
1.557500E-7	3.015072E-3
1.558000E-7	2.783801E-3
1.558500E-7	2.629621E-3
1.559000E-7	2.518269E-3
1.559500E-7	2.398351E-3
1.560000E-7	2.261302E-3
1.560500E-7	2.192777E-3
1.561000E-7	2.167080E-3
1.561500E-7	2.081425E-3
1.562000E-7	2.012900E-3
1.562500E-7	2.124252E-3
1.563000E-7	2.424047E-3
1.563500E-7	2.646752E-3
1.564000E-7	2.766670E-3
1.564500E-7	3.023637E-3
1.565000E-7	3.434785E-3
1.565500E-7	3.794539E-3
1.566000E-7	4.060071E-3
1.566500E-7	4.299907E-3
1.567000E-7	4.445522E-3
1.567500E-7	4.462653E-3
1.568000E-7	4.411260E-3
1.568500E-7	4.342735E-3
1.569000E-7	4.308473E-3
1.569500E-7	4.274211E-3
1.570000E-7	4.205686E-3
1.570500E-7	4.137161E-3
1.571000E-7	4.111465E-3
1.571500E-7	4.179989E-3
1.572000E-7	4.325604E-3
1.572500E-7	4.505481E-3
1.573000E-7	4.582571E-3
1.573500E-7	4.514047E-3
1.574000E-7	4.419825E-3
1.574500E-7	4.376997E-3
1.575000E-7	4.274211E-3
1.575500E-7	4.068637E-3
1.576000E-7	3.845932E-3
1.576500E-7	3.708883E-3
1.577000E-7	3.588965E-3
1.577500E-7	3.409088E-3
1.578000E-7	3.280604E-3
1.578500E-7	3.254908E-3
1.579000E-7	3.237777E-3
1.579500E-7	3.126424E-3
1.580000E-7	3.049334E-3
1.580500E-7	3.109293E-3
1.581000E-7	3.177818E-3
1.581500E-7	3.057900E-3
1.582000E-7	2.818064E-3
1.582500E-7	2.621056E-3
1.583000E-7	2.561097E-3
1.583500E-7	2.509703E-3
1.584000E-7	2.475441E-3
1.584500E-7	2.543965E-3
1.585000E-7	2.681015E-3
1.585500E-7	2.783801E-3
1.586000E-7	2.972244E-3
1.586500E-7	3.297736E-3
1.587000E-7	3.606096E-3
1.587500E-7	3.708883E-3
1.588000E-7	3.700317E-3
1.588500E-7	3.726014E-3
1.589000E-7	3.683186E-3
1.589500E-7	3.494744E-3
1.590000E-7	3.169252E-3
1.590500E-7	2.869457E-3
1.591000E-7	2.535400E-3
1.591500E-7	2.132818E-3
1.592000E-7	1.815892E-3
1.592500E-7	1.807326E-3
1.593000E-7	2.021466E-3
1.593500E-7	2.227039E-3
1.594000E-7	2.355523E-3
1.594500E-7	2.518269E-3
1.595000E-7	2.809498E-3
1.595500E-7	3.152121E-3
1.596000E-7	3.357695E-3
1.596500E-7	3.357695E-3
1.597000E-7	3.331998E-3
1.597500E-7	3.366260E-3
1.598000E-7	3.306301E-3
1.598500E-7	3.212080E-3
1.599000E-7	3.272039E-3
1.599500E-7	3.391957E-3
1.600000E-7	3.357695E-3
1.600500E-7	3.272039E-3
1.601000E-7	3.323432E-3
1.601500E-7	3.383391E-3
1.602000E-7	3.349129E-3
1.602500E-7	3.289170E-3
1.603000E-7	3.203514E-3
1.603500E-7	3.015072E-3
1.604000E-7	2.843760E-3
1.604500E-7	2.860892E-3
1.605000E-7	3.057900E-3
1.605500E-7	3.263473E-3
1.606000E-7	3.391957E-3
1.606500E-7	3.546137E-3
1.607000E-7	3.845932E-3
1.607500E-7	4.188555E-3
1.608000E-7	4.385563E-3
1.608500E-7	4.368432E-3
1.609000E-7	4.197120E-3
1.609500E-7	3.965850E-3
1.610000E-7	3.674621E-3
1.610500E-7	3.357695E-3
1.611000E-7	3.092162E-3
1.611500E-7	2.800933E-3
1.612000E-7	2.415482E-3
1.612500E-7	2.141384E-3
1.613000E-7	2.124252E-3
1.613500E-7	2.132818E-3
1.614000E-7	2.030031E-3
1.614500E-7	2.089990E-3
1.615000E-7	2.449744E-3
1.615500E-7	2.758105E-3
1.616000E-7	2.852326E-3
1.616500E-7	3.032203E-3
1.617000E-7	3.357695E-3
1.617500E-7	3.520440E-3
1.618000E-7	3.503309E-3
1.618500E-7	3.511875E-3
1.619000E-7	3.537572E-3
1.619500E-7	3.469047E-3
1.620000E-7	3.400522E-3
1.620500E-7	3.417654E-3
1.621000E-7	3.400522E-3
1.621500E-7	3.306301E-3
1.622000E-7	3.383391E-3
1.622500E-7	3.606096E-3
1.623000E-7	3.785973E-3
1.623500E-7	3.957284E-3
1.624000E-7	4.231383E-3
1.624500E-7	4.445522E-3
1.625000E-7	4.496915E-3
1.625500E-7	4.633965E-3
1.626000E-7	4.822407E-3
1.626500E-7	4.736751E-3
1.627000E-7	4.394129E-3
1.627500E-7	4.128596E-3
1.628000E-7	3.923022E-3
1.628500E-7	3.700317E-3
1.629000E-7	3.571834E-3
1.629500E-7	3.443350E-3
1.630000E-7	3.152121E-3
1.630500E-7	2.912285E-3
1.631000E-7	2.860892E-3
1.631500E-7	2.766670E-3
1.632000E-7	2.501138E-3
1.632500E-7	2.304129E-3
1.633000E-7	2.261302E-3
1.633500E-7	2.158515E-3
1.634000E-7	1.935810E-3
1.634500E-7	1.884417E-3
1.635000E-7	2.098556E-3
1.635500E-7	2.209908E-3
1.636000E-7	2.149949E-3
1.636500E-7	2.286998E-3
1.637000E-7	2.749539E-3
1.637500E-7	3.117859E-3
1.638000E-7	3.229211E-3
1.638500E-7	3.349129E-3
1.639000E-7	3.571834E-3
1.639500E-7	3.717449E-3
1.640000E-7	3.726014E-3
1.640500E-7	3.794539E-3
1.641000E-7	3.940153E-3
1.641500E-7	3.974416E-3
1.642000E-7	3.905891E-3
1.642500E-7	3.931588E-3
1.643000E-7	4.077202E-3
1.643500E-7	4.137161E-3
1.644000E-7	4.120030E-3
1.644500E-7	4.205686E-3
1.645000E-7	4.334170E-3
1.645500E-7	4.368432E-3
1.646000E-7	4.342735E-3
1.646500E-7	4.308473E-3
1.647000E-7	4.265645E-3
1.647500E-7	4.111465E-3
1.648000E-7	3.811670E-3
1.648500E-7	3.520440E-3
1.649000E-7	3.340563E-3
1.649500E-7	3.134990E-3
1.650000E-7	2.869457E-3
1.650500E-7	2.758105E-3
1.651000E-7	2.792367E-3
1.651500E-7	2.732408E-3
1.652000E-7	2.723842E-3
1.652500E-7	3.057900E-3
1.653000E-7	3.451916E-3
1.653500E-7	3.597531E-3
1.654000E-7	3.708883E-3
1.654500E-7	3.905891E-3
1.655000E-7	4.008678E-3
1.655500E-7	3.940153E-3
1.656000E-7	3.751711E-3
1.656500E-7	3.426219E-3
1.657000E-7	3.015072E-3
1.657500E-7	2.612490E-3
1.658000E-7	2.158515E-3
1.658500E-7	1.704540E-3
1.659000E-7	1.473269E-3
1.659500E-7	1.361917E-3
1.660000E-7	1.147777E-3
1.660500E-7	1.002163E-3
1.661000E-7	1.147777E-3
1.661500E-7	1.396179E-3
1.662000E-7	1.610318E-3
1.662500E-7	1.867285E-3
1.663000E-7	2.209908E-3
1.663500E-7	2.501138E-3
1.664000E-7	2.749539E-3
1.664500E-7	3.040768E-3
1.665000E-7	3.314867E-3
1.665500E-7	3.409088E-3
1.666000E-7	3.349129E-3
1.666500E-7	3.297736E-3
1.667000E-7	3.254908E-3
1.667500E-7	3.220645E-3
1.668000E-7	3.126424E-3
1.668500E-7	2.955113E-3
1.669000E-7	2.766670E-3
1.669500E-7	2.595359E-3
1.670000E-7	2.475441E-3
1.670500E-7	2.432613E-3
1.671000E-7	2.432613E-3
1.671500E-7	2.261302E-3
1.672000E-7	1.970072E-3
1.672500E-7	1.841589E-3
1.673000E-7	1.944375E-3
1.673500E-7	1.987203E-3
1.674000E-7	1.867285E-3
1.674500E-7	1.764499E-3
1.675000E-7	1.713105E-3
1.675500E-7	1.644581E-3
1.676000E-7	1.567490E-3
1.676500E-7	1.584622E-3
1.677000E-7	1.678843E-3
1.677500E-7	1.704540E-3
1.678000E-7	1.678843E-3
1.678500E-7	1.781630E-3
1.679000E-7	2.004334E-3
1.679500E-7	2.115687E-3
1.680000E-7	2.115687E-3
1.680500E-7	2.201343E-3
1.681000E-7	2.295564E-3
1.681500E-7	2.227039E-3
1.682000E-7	2.081425E-3
1.682500E-7	2.047162E-3
1.683000E-7	2.107121E-3
1.683500E-7	2.055728E-3
1.684000E-7	1.858720E-3
1.684500E-7	1.704540E-3
1.685000E-7	1.730236E-3
1.685500E-7	1.858720E-3
1.686000E-7	1.944375E-3
1.686500E-7	2.021466E-3
1.687000E-7	2.124252E-3
1.687500E-7	2.286998E-3
1.688000E-7	2.492572E-3
1.688500E-7	2.646752E-3
1.689000E-7	2.706711E-3
1.689500E-7	2.792367E-3
1.690000E-7	2.912285E-3
1.690500E-7	2.963678E-3
1.691000E-7	2.972244E-3
1.691500E-7	2.989375E-3
1.692000E-7	2.972244E-3
1.692500E-7	2.869457E-3
1.693000E-7	2.766670E-3
1.693500E-7	2.689580E-3
1.694000E-7	2.603924E-3
1.694500E-7	2.535400E-3
1.695000E-7	2.509703E-3
1.695500E-7	2.449744E-3
1.696000E-7	2.321261E-3
1.696500E-7	2.218474E-3
1.697000E-7	2.098556E-3
1.697500E-7	1.944375E-3
1.698000E-7	1.910113E-3
1.698500E-7	2.038597E-3
1.699000E-7	2.115687E-3
1.699500E-7	2.055728E-3
1.700000E-7	2.012900E-3
1.700500E-7	2.038597E-3
1.701000E-7	2.012900E-3
1.701500E-7	1.875851E-3
1.702000E-7	1.610318E-3
1.702500E-7	1.370482E-3
1.703000E-7	1.250564E-3
1.703500E-7	1.156343E-3
1.704000E-7	1.002163E-3
1.704500E-7	9.422038E-4
1.705000E-7	1.027859E-3
1.705500E-7	1.053556E-3
1.706000E-7	1.053556E-3
1.706500E-7	1.267695E-3
1.707000E-7	1.601753E-3
1.707500E-7	1.807326E-3
1.708000E-7	1.952941E-3
1.708500E-7	2.132818E-3
1.709000E-7	2.304129E-3
1.709500E-7	2.501138E-3
1.710000E-7	2.792367E-3
1.710500E-7	2.997941E-3
1.711000E-7	2.989375E-3
1.711500E-7	2.878023E-3
1.712000E-7	2.792367E-3
1.712500E-7	2.749539E-3
1.713000E-7	2.749539E-3
1.713500E-7	2.638187E-3
1.714000E-7	2.321261E-3
1.714500E-7	2.021466E-3
1.715000E-7	1.901548E-3
1.715500E-7	1.850154E-3
1.716000E-7	1.798761E-3
1.716500E-7	1.815892E-3
1.717000E-7	1.927244E-3
1.717500E-7	2.038597E-3
1.718000E-7	2.124252E-3
1.718500E-7	2.227039E-3
1.719000E-7	2.355523E-3
1.719500E-7	2.415482E-3
1.720000E-7	2.338392E-3
1.720500E-7	2.167080E-3
1.721000E-7	2.021466E-3
1.721500E-7	1.858720E-3
1.722000E-7	1.636015E-3
1.722500E-7	1.387613E-3
1.723000E-7	1.241999E-3
1.723500E-7	1.207736E-3
1.724000E-7	1.327654E-3
1.724500E-7	1.593187E-3
1.725000E-7	1.918679E-3
1.725500E-7	2.184211E-3
1.726000E-7	2.492572E-3
1.726500E-7	2.937982E-3
1.727000E-7	3.366260E-3
1.727500E-7	3.588965E-3
1.728000E-7	3.674621E-3
1.728500E-7	3.726014E-3
1.729000E-7	3.648924E-3
1.729500E-7	3.374826E-3
1.730000E-7	3.006506E-3
1.730500E-7	2.749539E-3
1.731000E-7	2.561097E-3
1.731500E-7	2.244170E-3
1.732000E-7	1.918679E-3
1.732500E-7	1.858720E-3
1.733000E-7	2.030031E-3
1.733500E-7	2.132818E-3
1.734000E-7	2.158515E-3
1.734500E-7	2.295564E-3
1.735000E-7	2.535400E-3
1.735500E-7	2.689580E-3
1.736000E-7	2.723842E-3
1.736500E-7	2.818064E-3
1.737000E-7	2.972244E-3
1.737500E-7	2.997941E-3
1.738000E-7	2.818064E-3
1.738500E-7	2.663883E-3
1.739000E-7	2.663883E-3
1.739500E-7	2.723842E-3
1.740000E-7	2.723842E-3
1.740500E-7	2.681015E-3
1.741000E-7	2.586793E-3
1.741500E-7	2.466875E-3
1.742000E-7	2.381220E-3
1.742500E-7	2.304129E-3
1.743000E-7	2.184211E-3
1.743500E-7	2.038597E-3
1.744000E-7	1.867285E-3
1.744500E-7	1.695974E-3
1.745000E-7	1.653146E-3
1.745500E-7	1.730236E-3
1.746000E-7	1.807326E-3
1.746500E-7	1.841589E-3
1.747000E-7	1.944375E-3
1.747500E-7	2.038597E-3
1.748000E-7	2.089990E-3
1.748500E-7	2.235605E-3
1.749000E-7	2.458310E-3
1.749500E-7	2.569662E-3
1.750000E-7	2.569662E-3
1.750500E-7	2.552531E-3
1.751000E-7	2.569662E-3
1.751500E-7	2.552531E-3
1.752000E-7	2.466875E-3
1.752500E-7	2.466875E-3
1.753000E-7	2.646752E-3
1.753500E-7	2.843760E-3
1.754000E-7	2.946547E-3
1.754500E-7	3.117859E-3
1.755000E-7	3.409088E-3
1.755500E-7	3.537572E-3
1.756000E-7	3.451916E-3
1.756500E-7	3.391957E-3
1.757000E-7	3.434785E-3
1.757500E-7	3.409088E-3
1.758000E-7	3.263473E-3
1.758500E-7	3.066465E-3
1.759000E-7	2.843760E-3
1.759500E-7	2.603924E-3
1.760000E-7	2.389785E-3
1.760500E-7	2.278433E-3
1.761000E-7	2.252736E-3
1.761500E-7	2.269867E-3
1.762000E-7	2.355523E-3
1.762500E-7	2.526834E-3
1.763000E-7	2.732408E-3
1.763500E-7	2.895154E-3
1.764000E-7	2.997941E-3
1.764500E-7	3.083596E-3
1.765000E-7	3.092162E-3
1.765500E-7	2.929416E-3
1.766000E-7	2.740974E-3
1.766500E-7	2.698146E-3
1.767000E-7	2.655318E-3
1.767500E-7	2.484006E-3
1.768000E-7	2.338392E-3
1.768500E-7	2.329826E-3
1.769000E-7	2.346957E-3
1.769500E-7	2.329826E-3
1.770000E-7	2.338392E-3
1.770500E-7	2.312695E-3
1.771000E-7	2.158515E-3
1.771500E-7	1.970072E-3
1.772000E-7	1.833023E-3
1.772500E-7	1.747367E-3
1.773000E-7	1.721671E-3
1.773500E-7	1.670277E-3
1.774000E-7	1.576056E-3
1.774500E-7	1.541794E-3
1.775000E-7	1.610318E-3
1.775500E-7	1.713105E-3
1.776000E-7	1.815892E-3
1.776500E-7	1.970072E-3
1.777000E-7	2.089990E-3
1.777500E-7	2.235605E-3
1.778000E-7	2.475441E-3
1.778500E-7	2.749539E-3
1.779000E-7	2.929416E-3
1.779500E-7	3.066465E-3
1.780000E-7	3.203514E-3
1.780500E-7	3.331998E-3
1.781000E-7	3.443350E-3
1.781500E-7	3.477613E-3
1.782000E-7	3.391957E-3
1.782500E-7	3.220645E-3
1.783000E-7	2.997941E-3
1.783500E-7	2.672449E-3
1.784000E-7	2.278433E-3
1.784500E-7	1.944375E-3
1.785000E-7	1.704540E-3
1.785500E-7	1.507531E-3
1.786000E-7	1.310523E-3
1.786500E-7	1.113515E-3
1.787000E-7	9.850316E-4
1.787500E-7	9.165071E-4
1.788000E-7	8.822448E-4
1.788500E-7	8.051547E-4
1.789000E-7	6.852367E-4
1.789500E-7	5.824498E-4
1.790000E-7	5.396220E-4
1.790500E-7	5.224908E-4
1.791000E-7	5.396220E-4
1.791500E-7	5.567531E-4
1.792000E-7	5.396220E-4
1.792500E-7	5.139253E-4
1.793000E-7	5.824498E-4
1.793500E-7	7.194990E-4
1.794000E-7	7.880235E-4
1.794500E-7	8.051547E-4
1.795000E-7	8.993759E-4
1.795500E-7	1.019294E-3
1.796000E-7	1.079253E-3
1.796500E-7	1.199171E-3
1.797000E-7	1.421876E-3
1.797500E-7	1.610318E-3
1.798000E-7	1.713105E-3
1.798500E-7	1.875851E-3
1.799000E-7	2.055728E-3
1.799500E-7	2.158515E-3
1.800000E-7	2.227039E-3
1.800500E-7	2.252736E-3
1.801000E-7	2.184211E-3
1.801500E-7	2.012900E-3
1.802000E-7	1.927244E-3
1.802500E-7	2.012900E-3
1.803000E-7	2.115687E-3
1.803500E-7	2.081425E-3
1.804000E-7	2.055728E-3
1.804500E-7	2.158515E-3
1.805000E-7	2.321261E-3
1.805500E-7	2.441179E-3
1.806000E-7	2.595359E-3
1.806500E-7	2.843760E-3
1.807000E-7	3.032203E-3
1.807500E-7	3.057900E-3
1.808000E-7	2.946547E-3
1.808500E-7	2.843760E-3
1.809000E-7	2.715277E-3
1.809500E-7	2.441179E-3
1.810000E-7	2.055728E-3
1.810500E-7	1.755933E-3
1.811000E-7	1.584622E-3
1.811500E-7	1.404745E-3
1.812000E-7	1.284827E-3
1.812500E-7	1.267695E-3
1.813000E-7	1.224868E-3
1.813500E-7	1.164909E-3
1.814000E-7	1.224868E-3
1.814500E-7	1.336220E-3
1.815000E-7	1.370482E-3
1.815500E-7	1.447572E-3
1.816000E-7	1.593187E-3
1.816500E-7	1.678843E-3
1.817000E-7	1.721671E-3
1.817500E-7	1.798761E-3
1.818000E-7	1.910113E-3
1.818500E-7	2.055728E-3
1.819000E-7	2.235605E-3
1.819500E-7	2.372654E-3
1.820000E-7	2.509703E-3
1.820500E-7	2.792367E-3
1.821000E-7	2.997941E-3
1.821500E-7	2.980809E-3
1.822000E-7	2.980809E-3
1.822500E-7	3.134990E-3
1.823000E-7	3.152121E-3
1.823500E-7	2.963678E-3
1.824000E-7	2.818064E-3
1.824500E-7	2.749539E-3
1.825000E-7	2.595359E-3
1.825500E-7	2.424047E-3
1.826000E-7	2.312695E-3
1.826500E-7	2.227039E-3
1.827000E-7	2.132818E-3
1.827500E-7	1.987203E-3
1.828000E-7	1.773064E-3
1.828500E-7	1.567490E-3
1.829000E-7	1.516097E-3
1.829500E-7	1.558925E-3
1.830000E-7	1.584622E-3
1.830500E-7	1.618884E-3
1.831000E-7	1.678843E-3
1.831500E-7	1.730236E-3
1.832000E-7	1.815892E-3
1.832500E-7	2.030031E-3
1.833000E-7	2.252736E-3
1.833500E-7	2.364088E-3
1.834000E-7	2.381220E-3
1.834500E-7	2.449744E-3
1.835000E-7	2.569662E-3
1.835500E-7	2.595359E-3
1.836000E-7	2.509703E-3
1.836500E-7	2.406916E-3
1.837000E-7	2.346957E-3
1.837500E-7	2.227039E-3
1.838000E-7	2.072859E-3
1.838500E-7	2.055728E-3
1.839000E-7	2.192777E-3
1.839500E-7	2.338392E-3
1.840000E-7	2.441179E-3
1.840500E-7	2.621056E-3
1.841000E-7	2.818064E-3
1.841500E-7	2.886588E-3
1.842000E-7	2.852326E-3
1.842500E-7	2.809498E-3
1.843000E-7	2.698146E-3
1.843500E-7	2.441179E-3
1.844000E-7	2.141384E-3
1.844500E-7	1.918679E-3
1.845000E-7	1.807326E-3
1.845500E-7	1.730236E-3
1.846000E-7	1.601753E-3
1.846500E-7	1.584622E-3
1.847000E-7	1.790195E-3
1.847500E-7	1.952941E-3
1.848000E-7	1.910113E-3
1.848500E-7	1.884417E-3
1.849000E-7	1.935810E-3
1.849500E-7	1.833023E-3
1.850000E-7	1.661712E-3
1.850500E-7	1.661712E-3
1.851000E-7	1.601753E-3
1.851500E-7	1.310523E-3
1.852000E-7	1.079253E-3
1.852500E-7	1.070687E-3
1.853000E-7	1.139212E-3
1.853500E-7	1.241999E-3
1.854000E-7	1.413310E-3
1.854500E-7	1.610318E-3
1.855000E-7	1.781630E-3
1.855500E-7	1.884417E-3
1.856000E-7	1.935810E-3
1.856500E-7	2.038597E-3
1.857000E-7	2.047162E-3
1.857500E-7	1.875851E-3
1.858000E-7	1.713105E-3
1.858500E-7	1.695974E-3
1.859000E-7	1.576056E-3
1.859500E-7	1.353351E-3
1.860000E-7	1.344786E-3
1.860500E-7	1.584622E-3
1.861000E-7	1.841589E-3
1.861500E-7	2.072859E-3
1.862000E-7	2.338392E-3
1.862500E-7	2.638187E-3
1.863000E-7	2.963678E-3
1.863500E-7	3.246342E-3
1.864000E-7	3.383391E-3
1.864500E-7	3.374826E-3
1.865000E-7	3.280604E-3
1.865500E-7	3.066465E-3
1.866000E-7	2.758105E-3
1.866500E-7	2.372654E-3
1.867000E-7	1.910113E-3
1.867500E-7	1.413310E-3
1.868000E-7	1.036425E-3
1.868500E-7	8.222858E-4
1.869000E-7	6.766711E-4
1.869500E-7	5.738843E-4
1.870000E-7	5.738843E-4
1.870500E-7	7.280645E-4
1.871000E-7	9.593349E-4
1.871500E-7	1.199171E-3
1.872000E-7	1.498966E-3
1.872500E-7	1.790195E-3
1.873000E-7	1.961507E-3
1.873500E-7	1.987203E-3
1.874000E-7	1.961507E-3
1.874500E-7	1.910113E-3
1.875000E-7	1.815892E-3
1.875500E-7	1.618884E-3
1.876000E-7	1.301958E-3
1.876500E-7	1.087818E-3
1.877000E-7	1.002163E-3
1.877500E-7	8.651137E-4
1.878000E-7	7.280645E-4
1.878500E-7	7.451957E-4
1.879000E-7	8.222858E-4
1.879500E-7	8.651137E-4
1.880000E-7	9.507694E-4
1.880500E-7	1.104950E-3
1.881000E-7	1.241999E-3
1.881500E-7	1.301958E-3
1.882000E-7	1.267695E-3
1.882500E-7	1.104950E-3
1.883000E-7	9.165071E-4
1.883500E-7	7.880235E-4
1.884000E-7	6.509744E-4
1.884500E-7	4.539663E-4
1.885000E-7	2.740893E-4
1.885500E-7	1.284746E-4
1.886000E-7	5.995006E-5
1.886500E-7	1.713025E-4
1.887000E-7	3.597450E-4
1.887500E-7	4.882286E-4
1.888000E-7	6.338433E-4
1.888500E-7	9.250726E-4
1.889000E-7	1.182040E-3
1.889500E-7	1.310523E-3
1.890000E-7	1.421876E-3
1.890500E-7	1.576056E-3
1.891000E-7	1.627449E-3
1.891500E-7	1.584622E-3
1.892000E-7	1.601753E-3
1.892500E-7	1.687408E-3
1.893000E-7	1.670277E-3
1.893500E-7	1.558925E-3
1.894000E-7	1.516097E-3
1.894500E-7	1.593187E-3
1.895000E-7	1.721671E-3
1.895500E-7	1.841589E-3
1.896000E-7	1.858720E-3
1.896500E-7	1.807326E-3
1.897000E-7	1.747367E-3
1.897500E-7	1.678843E-3
1.898000E-7	1.644581E-3
1.898500E-7	1.695974E-3
1.899000E-7	1.704540E-3
1.899500E-7	1.601753E-3
1.900000E-7	1.481835E-3
1.900500E-7	1.421876E-3
1.901000E-7	1.361917E-3
1.901500E-7	1.361917E-3
1.902000E-7	1.473269E-3
1.902500E-7	1.576056E-3
1.903000E-7	1.576056E-3
1.903500E-7	1.558925E-3
1.904000E-7	1.610318E-3
1.904500E-7	1.644581E-3
1.905000E-7	1.601753E-3
1.905500E-7	1.490400E-3
1.906000E-7	1.361917E-3
1.906500E-7	1.147777E-3
1.907000E-7	8.908104E-4
1.907500E-7	7.794580E-4
1.908000E-7	8.394169E-4
1.908500E-7	8.993759E-4
1.909000E-7	8.651137E-4
1.909500E-7	8.308514E-4
1.910000E-7	8.651137E-4
1.910500E-7	1.027859E-3
1.911000E-7	1.241999E-3
1.911500E-7	1.404745E-3
1.912000E-7	1.498966E-3
1.912500E-7	1.576056E-3
1.913000E-7	1.687408E-3
1.913500E-7	1.858720E-3
1.914000E-7	2.030031E-3
1.914500E-7	2.115687E-3
1.915000E-7	2.132818E-3
1.915500E-7	2.149949E-3
1.916000E-7	2.141384E-3
1.916500E-7	2.030031E-3
1.917000E-7	1.901548E-3
1.917500E-7	1.704540E-3
1.918000E-7	1.361917E-3
1.918500E-7	1.002163E-3
1.919000E-7	7.880235E-4
1.919500E-7	6.681055E-4
1.920000E-7	5.481876E-4
1.920500E-7	4.967941E-4
1.921000E-7	4.967941E-4
1.921500E-7	4.625319E-4
1.922000E-7	4.539663E-4
1.922500E-7	5.738843E-4
1.923000E-7	7.708924E-4
1.923500E-7	8.308514E-4
1.924000E-7	7.965891E-4
1.924500E-7	8.736792E-4
1.925000E-7	1.027859E-3
1.925500E-7	1.104950E-3
1.926000E-7	1.130646E-3
1.926500E-7	1.241999E-3
1.927000E-7	1.353351E-3
1.927500E-7	1.361917E-3
1.928000E-7	1.259130E-3
1.928500E-7	1.216302E-3
1.929000E-7	1.301958E-3
1.929500E-7	1.301958E-3
1.930000E-7	1.087818E-3
1.930500E-7	8.822448E-4
1.931000E-7	9.250726E-4
1.931500E-7	1.002163E-3
1.932000E-7	1.010728E-3
1.932500E-7	1.147777E-3
1.933000E-7	1.396179E-3
1.933500E-7	1.507531E-3
1.934000E-7	1.550359E-3
1.934500E-7	1.678843E-3
1.935000E-7	1.781630E-3
1.935500E-7	1.773064E-3
1.936000E-7	1.773064E-3
1.936500E-7	1.773064E-3
1.937000E-7	1.721671E-3
1.937500E-7	1.790195E-3
1.938000E-7	1.892982E-3
1.938500E-7	1.884417E-3
1.939000E-7	1.850154E-3
1.939500E-7	1.927244E-3
1.940000E-7	2.004334E-3
1.940500E-7	2.038597E-3
1.941000E-7	2.124252E-3
1.941500E-7	2.124252E-3
1.942000E-7	1.892982E-3
1.942500E-7	1.653146E-3
1.943000E-7	1.558925E-3
1.943500E-7	1.456138E-3
1.944000E-7	1.250564E-3
1.944500E-7	1.113515E-3
1.945000E-7	1.027859E-3
1.945500E-7	8.736792E-4
1.946000E-7	7.366301E-4
1.946500E-7	7.794580E-4
1.947000E-7	8.394169E-4
1.947500E-7	6.938022E-4
1.948000E-7	4.625319E-4
1.948500E-7	4.025729E-4
1.949000E-7	4.882286E-4
1.949500E-7	4.796630E-4
1.950000E-7	3.254827E-4
1.950500E-7	2.141303E-4
1.951000E-7	1.370402E-4
1.951500E-7	-8.934876E-9
1.952000E-7	-9.423021E-5
1.952500E-7	-4.283679E-5
1.953000E-7	1.712221E-5
1.953500E-7	2.568778E-5
1.954000E-7	1.798680E-4
1.954500E-7	4.796630E-4
1.955000E-7	7.280645E-4
1.955500E-7	9.250726E-4
1.956000E-7	1.190605E-3
1.956500E-7	1.430441E-3
1.957000E-7	1.558925E-3
1.957500E-7	1.576056E-3
1.958000E-7	1.464704E-3
1.958500E-7	1.293392E-3
1.959000E-7	1.070687E-3
1.959500E-7	7.109334E-4
1.960000E-7	2.483926E-4
1.960500E-7	-7.709907E-5
1.961000E-7	-2.227138E-4
1.961500E-7	-2.998039E-4
1.962000E-7	-1.970170E-4
1.962500E-7	5.995006E-5
1.963000E-7	2.740893E-4
1.963500E-7	4.368351E-4
1.964000E-7	7.023678E-4
1.964500E-7	1.019294E-3
1.965000E-7	1.250564E-3
1.965500E-7	1.421876E-3
1.966000E-7	1.507531E-3
1.966500E-7	1.447572E-3
1.967000E-7	1.327654E-3
1.967500E-7	1.267695E-3
1.968000E-7	1.241999E-3
1.968500E-7	1.224868E-3
1.969000E-7	1.190605E-3
1.969500E-7	1.096384E-3
1.970000E-7	1.062122E-3
1.970500E-7	1.130646E-3
1.971000E-7	1.190605E-3
1.971500E-7	1.139212E-3
1.972000E-7	1.070687E-3
1.972500E-7	1.036425E-3
1.973000E-7	1.044991E-3
1.973500E-7	1.087818E-3
1.974000E-7	1.173474E-3
1.974500E-7	1.259130E-3
1.975000E-7	1.310523E-3
1.975500E-7	1.353351E-3
1.976000E-7	1.413310E-3
1.976500E-7	1.507531E-3
1.977000E-7	1.567490E-3
1.977500E-7	1.481835E-3
1.978000E-7	1.224868E-3
1.978500E-7	9.593349E-4
1.979000E-7	7.451957E-4
1.979500E-7	5.653187E-4
1.980000E-7	3.940073E-4
1.980500E-7	2.483926E-4
1.981000E-7	1.199090E-4
1.981500E-7	9.421234E-5
1.982000E-7	1.798680E-4
1.982500E-7	2.997860E-4
1.983000E-7	4.282696E-4
1.983500E-7	5.824498E-4
1.984000E-7	6.681055E-4
1.984500E-7	7.366301E-4
1.985000E-7	9.250726E-4
1.985500E-7	1.224868E-3
1.986000E-7	1.464704E-3
1.986500E-7	1.618884E-3
1.987000E-7	1.678843E-3
1.987500E-7	1.644581E-3
1.988000E-7	1.533228E-3
1.988500E-7	1.413310E-3
1.989000E-7	1.199171E-3
1.989500E-7	8.222858E-4
1.990000E-7	3.511794E-4
1.990500E-7	-1.199269E-4
1.991000E-7	-5.739021E-4
1.991500E-7	-9.422217E-4
1.992000E-7	-1.087836E-3
1.992500E-7	-1.002181E-3
1.993000E-7	-7.966070E-4
1.993500E-7	-5.396399E-4
1.994000E-7	-1.541892E-4
1.994500E-7	4.368351E-4
1.995000E-7	1.070687E-3
1.995500E-7	1.473269E-3
1.996000E-7	1.704540E-3
1.996500E-7	1.901548E-3
1.997000E-7	2.021466E-3
1.997500E-7	1.970072E-3
1.998000E-7	1.755933E-3
1.998500E-7	1.439007E-3
1.999000E-7	1.070687E-3
1.999500E-7	7.194990E-4
2.000000E-7	4.539663E-4
