Study Name	Beam_042_10_RT_lecroy
Sample Name	2025-09-10
Run Name	spot00
Operator	Elena
Date	9/10/2025
Time	15:49
Sign	FIX
Grating Spacing	03.40um
Channel	3
Number Traces	2000
Files in Batch	6
Batch Number	2
dt	50.000001E-12
time stamp (ms)	3:50:10 PM
	
Time	Amplitude
0.000000E+0	1.019294E-3
5.000000E-11	5.824498E-4
1.000000E-10	2.740893E-4
1.500000E-10	4.281892E-5
2.000000E-10	-3.169350E-4
2.500000E-10	-6.424267E-4
3.000000E-10	-7.366480E-4
3.500000E-10	-7.366480E-4
4.000000E-10	-7.966070E-4
4.500000E-10	-7.966070E-4
5.000000E-10	-5.995988E-4
5.500000E-10	-2.655416E-4
6.000000E-10	-8.934876E-9
6.500000E-10	1.370402E-4
7.000000E-10	3.854417E-4
7.500000E-10	7.794580E-4
8.000000E-10	9.935972E-4
8.500000E-10	9.336382E-4
9.000000E-10	9.250726E-4
9.500000E-10	1.019294E-3
1.000000E-9	8.651137E-4
1.050000E-9	4.796630E-4
1.100000E-9	2.141303E-4
1.150000E-9	3.425335E-5
1.200000E-9	-2.912383E-4
1.250000E-9	-6.167300E-4
1.300000E-9	-7.109513E-4
1.350000E-9	-6.766890E-4
1.400000E-9	-6.167300E-4
1.450000E-9	-4.796809E-4
1.500000E-9	-1.970170E-4
1.550000E-9	1.798680E-4
1.600000E-9	5.481876E-4
1.650000E-9	7.965891E-4
1.700000E-9	9.422038E-4
1.750000E-9	1.096384E-3
1.800000E-9	1.173474E-3
1.850000E-9	9.935972E-4
1.900000E-9	6.681055E-4
1.950000E-9	4.368351E-4
2.000000E-9	2.826549E-4
2.050000E-9	1.456058E-4
2.100000E-9	-8.934876E-9
2.150000E-9	-1.284925E-4
2.200000E-9	-2.141482E-4
2.250000E-9	-2.826728E-4
2.300000E-9	-2.741072E-4
2.350000E-9	-1.884515E-4
2.400000E-9	-2.227138E-4
2.450000E-9	-5.225087E-4
2.500000E-9	-8.223037E-4
2.550000E-9	-9.593528E-4
2.600000E-9	-1.164926E-3
2.650000E-9	-1.524680E-3
2.700000E-9	-1.678861E-3
2.750000E-9	-1.576074E-3
2.800000E-9	-1.533246E-3
2.850000E-9	-1.550377E-3
2.900000E-9	-1.310541E-3
2.950000E-9	-8.223037E-4
3.000000E-9	-3.683285E-4
3.050000E-9	-1.713203E-4
3.100000E-9	-9.423021E-5
3.150000E-9	1.199090E-4
3.200000E-9	3.169172E-4
3.250000E-9	2.141303E-4
3.300000E-9	-1.714008E-5
3.350000E-9	-1.199269E-4
3.400000E-9	-2.912383E-4
3.450000E-9	-5.910333E-4
3.500000E-9	-7.109513E-4
3.550000E-9	-6.081644E-4
3.600000E-9	-4.968120E-4
3.650000E-9	-3.854596E-4
3.700000E-9	-1.713203E-4
3.750000E-9	9.421234E-5
3.800000E-9	3.511794E-4
3.850000E-9	6.252777E-4
3.900000E-9	8.565481E-4
3.950000E-9	9.764661E-4
4.000000E-9	1.027859E-3
4.050000E-9	1.044991E-3
4.100000E-9	9.764661E-4
4.150000E-9	7.965891E-4
4.200000E-9	5.738843E-4
4.250000E-9	3.254827E-4
4.300000E-9	3.425335E-5
4.350000E-9	-2.227138E-4
4.400000E-9	-3.169350E-4
4.450000E-9	-3.683285E-4
4.500000E-9	-4.197219E-4
4.550000E-9	-3.340662E-4
4.600000E-9	-1.884515E-4
4.650000E-9	-1.627548E-4
4.700000E-9	-1.284925E-4
4.750000E-9	5.995006E-5
4.800000E-9	1.113435E-4
4.850000E-9	-8.566464E-5
4.900000E-9	-2.398449E-4
4.950000E-9	-2.398449E-4
5.000000E-9	-2.912383E-4
5.050000E-9	-3.854596E-4
5.100000E-9	-3.768940E-4
5.150000E-9	-2.141482E-4
5.200000E-9	-2.570565E-5
5.250000E-9	9.421234E-5
5.300000E-9	2.312615E-4
5.350000E-9	4.796630E-4
5.400000E-9	6.338433E-4
5.450000E-9	5.567531E-4
5.500000E-9	4.111384E-4
5.550000E-9	2.655237E-4
5.600000E-9	-8.566464E-5
5.650000E-9	-5.310743E-4
5.700000E-9	-8.993938E-4
5.750000E-9	-1.250582E-3
5.800000E-9	-1.627467E-3
5.850000E-9	-1.841607E-3
5.900000E-9	-1.858738E-3
5.950000E-9	-1.747385E-3
6.000000E-9	-1.498984E-3
6.050000E-9	-1.113533E-3
6.100000E-9	-5.995988E-4
6.150000E-9	-8.574505E-6
6.200000E-9	5.738843E-4
6.250000E-9	1.010728E-3
6.300000E-9	1.293392E-3
6.350000E-9	1.473269E-3
6.400000E-9	1.567490E-3
6.450000E-9	1.524663E-3
6.500000E-9	1.361917E-3
6.550000E-9	1.224868E-3
6.600000E-9	1.113515E-3
6.650000E-9	8.137202E-4
6.700000E-9	3.683106E-4
6.750000E-9	9.421234E-5
6.800000E-9	-3.427122E-5
6.850000E-9	-2.484105E-4
6.900000E-9	-4.796809E-4
6.950000E-9	-5.053776E-4
7.000000E-9	-4.197219E-4
7.050000E-9	-3.340662E-4
7.100000E-9	-2.484105E-4
7.150000E-9	-1.284925E-4
7.200000E-9	-4.283679E-5
7.250000E-9	8.556635E-6
7.300000E-9	6.851563E-5
7.350000E-9	1.199090E-4
7.400000E-9	1.113435E-4
7.450000E-9	7.708120E-5
7.500000E-9	5.138449E-5
7.550000E-9	4.281892E-5
7.600000E-9	-4.283679E-5
7.650000E-9	-7.709907E-5
7.700000E-9	8.556635E-6
7.750000E-9	1.199090E-4
7.800000E-9	1.370402E-4
7.850000E-9	1.113435E-4
7.900000E-9	4.281892E-5
7.950000E-9	-1.714008E-5
8.000000E-9	-3.427122E-5
8.050000E-9	-1.284925E-4
8.100000E-9	-2.398449E-4
8.150000E-9	-1.541892E-4
8.200000E-9	2.568778E-5
8.250000E-9	5.995006E-5
8.300000E-9	1.713025E-4
8.350000E-9	4.539663E-4
8.400000E-9	5.995810E-4
8.450000E-9	5.481876E-4
8.500000E-9	5.738843E-4
8.550000E-9	7.280645E-4
8.600000E-9	6.766711E-4
8.650000E-9	4.539663E-4
8.700000E-9	3.597450E-4
8.750000E-9	4.882286E-4
8.800000E-9	6.167121E-4
8.850000E-9	6.338433E-4
8.900000E-9	7.023678E-4
8.950000E-9	8.308514E-4
9.000000E-9	8.137202E-4
9.050000E-9	7.194990E-4
9.100000E-9	7.109334E-4
9.150000E-9	7.366301E-4
9.200000E-9	6.252777E-4
9.250000E-9	4.111384E-4
9.300000E-9	2.226959E-4
9.350000E-9	1.456058E-4
9.400000E-9	7.708120E-5
9.450000E-9	-5.140236E-5
9.500000E-9	-8.934876E-9
9.550000E-9	2.997860E-4
9.600000E-9	5.224908E-4
9.650000E-9	5.139253E-4
9.700000E-9	5.995810E-4
9.750000E-9	8.479825E-4
9.800000E-9	1.036425E-3
9.850000E-9	1.130646E-3
9.900000E-9	1.122081E-3
9.950000E-9	9.679005E-4
1.000000E-8	8.137202E-4
1.005000E-8	7.109334E-4
1.010000E-8	5.224908E-4
1.015000E-8	2.912205E-4
1.020000E-8	1.884336E-4
1.025000E-8	3.425335E-5
1.030000E-8	-1.456236E-4
1.035000E-8	8.556635E-6
1.040000E-8	3.426139E-4
1.045000E-8	4.454007E-4
1.050000E-8	5.310564E-4
1.055000E-8	9.250726E-4
1.060000E-8	1.319089E-3
1.065000E-8	1.439007E-3
1.070000E-8	1.490400E-3
1.075000E-8	1.498966E-3
1.080000E-8	1.319089E-3
1.085000E-8	9.507694E-4
1.090000E-8	6.167121E-4
1.095000E-8	2.997860E-4
1.100000E-8	-1.456236E-4
1.105000E-8	-6.681234E-4
1.110000E-8	-1.122099E-3
1.115000E-8	-1.430459E-3
1.120000E-8	-1.627467E-3
1.125000E-8	-1.755951E-3
1.130000E-8	-1.704557E-3
1.135000E-8	-1.413328E-3
1.140000E-8	-1.019312E-3
1.145000E-8	-5.995988E-4
1.150000E-8	1.884336E-4
1.155000E-8	1.576056E-3
1.160000E-8	3.391957E-3
1.165000E-8	5.653267E-3
1.170000E-8	8.754004E-3
1.175000E-8	1.281408E-2
1.180000E-8	1.776498E-2
1.185000E-8	2.377801E-2
1.190000E-8	3.099022E-2
1.195000E-8	3.915321E-2
1.200000E-8	4.810423E-2
1.205000E-8	5.775763E-2
1.210000E-8	6.783074E-2
1.215000E-8	7.798094E-2
1.220000E-8	8.795127E-2
1.225000E-8	9.739909E-2
1.230000E-8	1.061017E-1
1.235000E-8	1.142476E-1
1.240000E-8	1.218024E-1
1.245000E-8	1.284493E-1
1.250000E-8	1.343852E-1
1.255000E-8	1.400642E-1
1.260000E-8	1.453235E-1
1.265000E-8	1.498032E-1
1.270000E-8	1.537177E-1
1.275000E-8	1.573923E-1
1.280000E-8	1.604160E-1
1.285000E-8	1.624889E-1
1.290000E-8	1.637566E-1
1.295000E-8	1.641848E-1
1.300000E-8	1.634139E-1
1.305000E-8	1.614610E-1
1.310000E-8	1.586857E-1
1.315000E-8	1.550625E-1
1.320000E-8	1.505741E-1
1.325000E-8	1.456061E-1
1.330000E-8	1.404668E-1
1.335000E-8	1.351990E-1
1.340000E-8	1.300253E-1
1.345000E-8	1.252800E-1
1.350000E-8	1.210743E-1
1.355000E-8	1.174254E-1
1.360000E-8	1.144960E-1
1.365000E-8	1.123888E-1
1.370000E-8	1.110783E-1
1.375000E-8	1.103674E-1
1.380000E-8	1.101961E-1
1.385000E-8	1.107442E-1
1.390000E-8	1.121319E-1
1.395000E-8	1.141020E-1
1.400000E-8	1.164318E-1
1.405000E-8	1.192327E-1
1.410000E-8	1.225219E-1
1.415000E-8	1.260167E-1
1.420000E-8	1.294172E-1
1.425000E-8	1.327406E-1
1.430000E-8	1.359527E-1
1.435000E-8	1.387879E-1
1.440000E-8	1.409807E-1
1.445000E-8	1.424283E-1
1.450000E-8	1.430878E-1
1.455000E-8	1.429936E-1
1.460000E-8	1.421199E-1
1.465000E-8	1.403383E-1
1.470000E-8	1.376573E-1
1.475000E-8	1.343938E-1
1.480000E-8	1.306421E-1
1.485000E-8	1.262908E-1
1.490000E-8	1.216996E-1
1.495000E-8	1.173055E-1
1.500000E-8	1.130398E-1
1.505000E-8	1.089112E-1
1.510000E-8	1.052794E-1
1.515000E-8	1.023157E-1
1.520000E-8	9.990024E-2
1.525000E-8	9.817856E-2
1.530000E-8	9.733913E-2
1.535000E-8	9.720208E-2
1.540000E-8	9.764749E-2
1.545000E-8	9.878671E-2
1.550000E-8	1.005769E-1
1.555000E-8	1.027354E-1
1.560000E-8	1.051338E-1
1.565000E-8	1.078063E-1
1.570000E-8	1.107871E-1
1.575000E-8	1.139306E-1
1.580000E-8	1.170228E-1
1.585000E-8	1.199522E-1
1.590000E-8	1.228046E-1
1.595000E-8	1.255199E-1
1.600000E-8	1.278668E-1
1.605000E-8	1.296313E-1
1.610000E-8	1.308219E-1
1.615000E-8	1.314815E-1
1.620000E-8	1.314044E-1
1.625000E-8	1.304194E-1
1.630000E-8	1.286720E-1
1.635000E-8	1.262137E-1
1.640000E-8	1.228474E-1
1.645000E-8	1.186845E-1
1.650000E-8	1.140677E-1
1.655000E-8	1.091254E-1
1.660000E-8	1.039261E-1
1.665000E-8	9.890663E-2
1.670000E-8	9.446110E-2
1.675000E-8	9.070081E-2
1.680000E-8	8.766860E-2
1.685000E-8	8.552721E-2
1.690000E-8	8.444795E-2
1.695000E-8	8.455073E-2
1.700000E-8	8.565569E-2
1.705000E-8	8.758295E-2
1.710000E-8	9.032393E-2
1.715000E-8	9.373303E-2
1.720000E-8	9.733913E-2
1.725000E-8	1.009709E-1
1.730000E-8	1.047141E-1
1.735000E-8	1.083716E-1
1.740000E-8	1.116351E-1
1.745000E-8	1.144788E-1
1.750000E-8	1.169800E-1
1.755000E-8	1.190614E-1
1.760000E-8	1.206032E-1
1.765000E-8	1.215711E-1
1.770000E-8	1.220080E-1
1.775000E-8	1.219994E-1
1.780000E-8	1.215112E-1
1.785000E-8	1.204148E-1
1.790000E-8	1.186760E-1
1.795000E-8	1.163204E-1
1.800000E-8	1.132882E-1
1.805000E-8	1.096564E-1
1.810000E-8	1.057163E-1
1.815000E-8	1.015791E-1
1.820000E-8	9.712499E-2
1.825000E-8	9.257667E-2
1.830000E-8	8.843094E-2
1.835000E-8	8.491905E-2
1.840000E-8	8.186971E-2
1.845000E-8	7.953988E-2
1.850000E-8	7.835783E-2
1.855000E-8	7.822078E-2
1.860000E-8	7.886320E-2
1.865000E-8	8.037930E-2
1.870000E-8	8.284619E-2
1.875000E-8	8.597262E-2
1.880000E-8	8.947594E-2
1.885000E-8	9.323622E-2
1.890000E-8	9.712499E-2
1.895000E-8	1.009881E-1
1.900000E-8	1.046113E-1
1.905000E-8	1.077720E-1
1.910000E-8	1.104701E-1
1.915000E-8	1.127743E-1
1.920000E-8	1.144531E-1
1.925000E-8	1.153782E-1
1.930000E-8	1.157465E-1
1.935000E-8	1.156523E-1
1.940000E-8	1.149499E-1
1.945000E-8	1.136223E-1
1.950000E-8	1.118835E-1
1.955000E-8	1.097078E-1
1.960000E-8	1.069925E-1
1.965000E-8	1.038404E-1
1.970000E-8	1.004656E-1
1.975000E-8	9.692798E-2
1.980000E-8	9.315913E-2
1.985000E-8	8.928749E-2
1.990000E-8	8.564713E-2
1.995000E-8	8.235795E-2
2.000000E-8	7.941996E-2
2.005000E-8	7.707299E-2
2.010000E-8	7.561684E-2
2.015000E-8	7.504295E-2
2.020000E-8	7.528279E-2
2.025000E-8	7.643914E-2
2.030000E-8	7.865762E-2
2.035000E-8	8.175836E-2
2.040000E-8	8.542442E-2
2.045000E-8	8.949307E-2
2.050000E-8	9.397286E-2
2.055000E-8	9.860683E-2
2.060000E-8	1.029496E-1
2.065000E-8	1.067784E-1
2.070000E-8	1.100847E-1
2.075000E-8	1.126972E-1
2.080000E-8	1.144360E-1
2.085000E-8	1.152240E-1
2.090000E-8	1.151127E-1
2.095000E-8	1.142133E-1
2.100000E-8	1.126115E-1
2.105000E-8	1.103588E-1
2.110000E-8	1.076264E-1
2.115000E-8	1.045685E-1
2.120000E-8	1.011765E-1
2.125000E-8	9.750188E-2
2.130000E-8	9.389577E-2
2.135000E-8	9.057233E-2
2.140000E-8	8.735168E-2
2.145000E-8	8.414815E-2
2.150000E-8	8.121873E-2
2.155000E-8	7.872615E-2
2.160000E-8	7.655049E-2
2.165000E-8	7.467463E-2
2.170000E-8	7.341549E-2
2.175000E-8	7.286730E-2
2.180000E-8	7.289299E-2
2.185000E-8	7.347545E-2
2.190000E-8	7.492303E-2
2.195000E-8	7.719291E-2
2.200000E-8	7.997672E-2
2.205000E-8	8.315455E-2
2.210000E-8	8.689770E-2
2.215000E-8	9.114622E-2
2.220000E-8	9.548897E-2
2.225000E-8	9.942913E-2
2.230000E-8	1.028896E-1
2.235000E-8	1.059989E-1
2.240000E-8	1.084744E-1
2.245000E-8	1.099476E-1
2.250000E-8	1.104787E-1
2.255000E-8	1.102132E-1
2.260000E-8	1.090140E-1
2.265000E-8	1.068383E-1
2.270000E-8	1.040374E-1
2.275000E-8	1.008424E-1
2.280000E-8	9.722778E-2
2.285000E-8	9.326192E-2
2.290000E-8	8.927893E-2
2.295000E-8	8.546725E-2
2.300000E-8	8.184401E-2
2.305000E-8	7.851201E-2
2.310000E-8	7.560828E-2
2.315000E-8	7.313283E-2
2.320000E-8	7.102570E-2
2.325000E-8	6.937254E-2
2.330000E-8	6.832754E-2
2.335000E-8	6.790783E-2
2.340000E-8	6.799349E-2
2.345000E-8	6.866160E-2
2.350000E-8	7.008349E-2
2.355000E-8	7.224201E-2
2.360000E-8	7.491447E-2
2.365000E-8	7.799807E-2
2.370000E-8	8.152709E-2
2.375000E-8	8.535590E-2
2.380000E-8	8.913331E-2
2.385000E-8	9.270516E-2
2.390000E-8	9.606286E-2
2.395000E-8	9.893233E-2
2.400000E-8	1.009367E-1
2.405000E-8	1.020502E-1
2.410000E-8	1.024271E-1
2.415000E-8	1.019902E-1
2.420000E-8	1.006026E-1
2.425000E-8	9.842696E-2
2.430000E-8	9.576307E-2
2.435000E-8	9.267089E-2
2.440000E-8	8.910762E-2
2.445000E-8	8.527024E-2
2.450000E-8	8.150996E-2
2.455000E-8	7.801520E-2
2.460000E-8	7.476029E-2
2.465000E-8	7.173664E-2
2.470000E-8	6.914984E-2
2.475000E-8	6.721402E-2
2.480000E-8	6.581783E-2
2.485000E-8	6.481566E-2
2.490000E-8	6.431886E-2
2.495000E-8	6.449873E-2
2.500000E-8	6.524394E-2
2.505000E-8	6.633177E-2
2.510000E-8	6.785644E-2
2.515000E-8	6.987791E-2
2.520000E-8	7.219918E-2
2.525000E-8	7.470033E-2
2.530000E-8	7.750984E-2
2.535000E-8	8.057631E-2
2.540000E-8	8.361709E-2
2.545000E-8	8.652938E-2
2.550000E-8	8.934745E-2
2.555000E-8	9.200278E-2
2.560000E-8	9.428122E-2
2.565000E-8	9.598577E-2
2.570000E-8	9.704790E-2
2.575000E-8	9.746761E-2
2.580000E-8	9.719352E-2
2.585000E-8	9.607143E-2
2.590000E-8	9.412704E-2
2.595000E-8	9.153167E-2
2.600000E-8	8.832815E-2
2.605000E-8	8.458500E-2
2.610000E-8	8.050779E-2
2.615000E-8	7.637061E-2
2.620000E-8	7.233623E-2
2.625000E-8	6.850742E-2
2.630000E-8	6.510689E-2
2.635000E-8	6.239160E-2
2.640000E-8	6.035300E-2
2.645000E-8	5.884546E-2
2.650000E-8	5.803173E-2
2.655000E-8	5.818591E-2
2.660000E-8	5.905960E-2
2.665000E-8	6.037870E-2
2.670000E-8	6.237447E-2
2.675000E-8	6.513259E-2
2.680000E-8	6.817336E-2
2.685000E-8	7.126553E-2
2.690000E-8	7.458041E-2
2.695000E-8	7.804090E-2
2.700000E-8	8.124442E-2
2.705000E-8	8.405393E-2
2.710000E-8	8.654651E-2
2.715000E-8	8.870504E-2
2.720000E-8	9.036676E-2
2.725000E-8	9.136893E-2
2.730000E-8	9.178864E-2
2.735000E-8	9.175438E-2
2.740000E-8	9.124044E-2
2.745000E-8	9.004983E-2
2.750000E-8	8.826819E-2
2.755000E-8	8.611823E-2
2.760000E-8	8.353143E-2
2.765000E-8	8.040500E-2
2.770000E-8	7.687598E-2
2.775000E-8	7.317566E-2
2.780000E-8	6.933828E-2
2.785000E-8	6.559513E-2
2.790000E-8	6.234878E-2
2.795000E-8	5.970202E-2
2.800000E-8	5.746640E-2
2.805000E-8	5.580468E-2
2.810000E-8	5.510230E-2
2.815000E-8	5.539353E-2
2.820000E-8	5.635288E-2
2.825000E-8	5.784329E-2
2.830000E-8	5.997611E-2
2.835000E-8	6.269996E-2
2.840000E-8	6.567222E-2
2.845000E-8	6.862734E-2
2.850000E-8	7.164242E-2
2.855000E-8	7.475172E-2
2.860000E-8	7.765545E-2
2.865000E-8	8.012233E-2
2.870000E-8	8.234938E-2
2.875000E-8	8.449078E-2
2.880000E-8	8.623815E-2
2.885000E-8	8.734311E-2
2.890000E-8	8.795983E-2
2.895000E-8	8.823393E-2
2.900000E-8	8.797696E-2
2.905000E-8	8.699192E-2
2.910000E-8	8.539016E-2
2.915000E-8	8.329160E-2
2.920000E-8	8.063627E-2
2.925000E-8	7.735566E-2
2.930000E-8	7.367246E-2
2.935000E-8	6.992931E-2
2.940000E-8	6.608336E-2
2.945000E-8	6.207468E-2
2.950000E-8	5.826300E-2
2.955000E-8	5.513657E-2
2.960000E-8	5.268681E-2
2.965000E-8	5.084522E-2
2.970000E-8	4.985161E-2
2.975000E-8	4.986874E-2
2.980000E-8	5.074243E-2
2.985000E-8	5.235276E-2
2.990000E-8	5.476825E-2
2.995000E-8	5.795464E-2
3.000000E-8	6.159501E-2
3.005000E-8	6.538955E-2
3.010000E-8	6.917554E-2
3.015000E-8	7.292726E-2
3.020000E-8	7.643057E-2
3.025000E-8	7.938570E-2
3.030000E-8	8.171553E-2
3.035000E-8	8.348860E-2
3.040000E-8	8.455930E-2
3.045000E-8	8.482483E-2
3.050000E-8	8.456787E-2
3.055000E-8	8.391688E-2
3.060000E-8	8.264061E-2
3.065000E-8	8.075619E-2
3.070000E-8	7.867475E-2
3.075000E-8	7.650766E-2
3.080000E-8	7.398082E-2
3.085000E-8	7.119701E-2
3.090000E-8	6.852455E-2
3.095000E-8	6.594632E-2
3.100000E-8	6.323960E-2
3.105000E-8	6.052431E-2
3.110000E-8	5.810025E-2
3.115000E-8	5.604452E-2
3.120000E-8	5.422005E-2
3.125000E-8	5.266112E-2
3.130000E-8	5.165894E-2
3.135000E-8	5.135915E-2
3.140000E-8	5.162468E-2
3.145000E-8	5.240415E-2
3.150000E-8	5.391169E-2
3.155000E-8	5.613017E-2
3.160000E-8	5.876837E-2
3.165000E-8	6.167210E-2
3.170000E-8	6.483279E-2
3.175000E-8	6.818193E-2
3.180000E-8	7.147111E-2
3.185000E-8	7.443480E-2
3.190000E-8	7.705586E-2
3.195000E-8	7.936000E-2
3.200000E-8	8.106455E-2
3.205000E-8	8.197250E-2
3.210000E-8	8.229799E-2
3.215000E-8	8.214381E-2
3.220000E-8	8.120160E-2
3.225000E-8	7.942852E-2
3.230000E-8	7.721861E-2
3.235000E-8	7.468320E-2
3.240000E-8	7.165099E-2
3.245000E-8	6.827615E-2
3.250000E-8	6.496984E-2
3.255000E-8	6.174919E-2
3.260000E-8	5.852853E-2
3.265000E-8	5.555628E-2
3.270000E-8	5.310653E-2
3.275000E-8	5.111075E-2
3.280000E-8	4.945759E-2
3.285000E-8	4.826698E-2
3.290000E-8	4.771022E-2
3.295000E-8	4.777874E-2
3.300000E-8	4.824985E-2
3.305000E-8	4.908071E-2
3.310000E-8	5.045120E-2
3.315000E-8	5.237845E-2
3.320000E-8	5.457980E-2
3.325000E-8	5.706382E-2
3.330000E-8	6.002751E-2
3.335000E-8	6.335095E-2
3.340000E-8	6.657160E-2
3.345000E-8	6.950959E-2
3.350000E-8	7.237049E-2
3.355000E-8	7.505152E-2
3.360000E-8	7.704729E-2
3.365000E-8	7.814369E-2
3.370000E-8	7.853770E-2
3.375000E-8	7.824647E-2
3.380000E-8	7.708156E-2
3.385000E-8	7.518000E-2
3.390000E-8	7.285017E-2
3.395000E-8	7.012631E-2
3.400000E-8	6.696562E-2
3.405000E-8	6.365931E-2
3.410000E-8	6.055857E-2
3.415000E-8	5.766341E-2
3.420000E-8	5.491386E-2
3.425000E-8	5.245554E-2
3.430000E-8	5.046833E-2
3.435000E-8	4.898649E-2
3.440000E-8	4.782157E-2
3.445000E-8	4.699071E-2
3.450000E-8	4.667378E-2
3.455000E-8	4.688792E-2
3.460000E-8	4.747038E-2
3.465000E-8	4.835263E-2
3.470000E-8	4.973169E-2
3.475000E-8	5.161612E-2
3.480000E-8	5.378321E-2
3.485000E-8	5.611304E-2
3.490000E-8	5.871697E-2
3.495000E-8	6.151792E-2
3.500000E-8	6.425033E-2
3.505000E-8	6.682000E-2
3.510000E-8	6.926119E-2
3.515000E-8	7.140258E-2
3.520000E-8	7.298721E-2
3.525000E-8	7.403221E-2
3.530000E-8	7.462324E-2
3.535000E-8	7.466607E-2
3.540000E-8	7.398939E-2
3.545000E-8	7.258463E-2
3.550000E-8	7.063168E-2
3.555000E-8	6.831898E-2
3.560000E-8	6.568078E-2
3.565000E-8	6.264001E-2
3.570000E-8	5.936796E-2
3.575000E-8	5.622439E-2
3.580000E-8	5.329497E-2
3.585000E-8	5.049403E-2
3.590000E-8	4.801858E-2
3.595000E-8	4.611702E-2
3.600000E-8	4.468657E-2
3.605000E-8	4.365870E-2
3.610000E-8	4.316190E-2
3.615000E-8	4.323042E-2
3.620000E-8	4.381288E-2
3.625000E-8	4.491784E-2
3.630000E-8	4.645108E-2
3.635000E-8	4.835263E-2
3.640000E-8	5.058825E-2
3.645000E-8	5.308939E-2
3.650000E-8	5.577042E-2
3.655000E-8	5.862275E-2
3.660000E-8	6.144083E-2
3.665000E-8	6.398480E-2
3.670000E-8	6.627181E-2
3.675000E-8	6.831041E-2
3.680000E-8	6.991217E-2
3.685000E-8	7.101713E-2
3.690000E-8	7.165955E-2
3.695000E-8	7.170238E-2
3.700000E-8	7.098287E-2
3.705000E-8	6.961238E-2
3.710000E-8	6.777078E-2
3.715000E-8	6.547521E-2
3.720000E-8	6.281988E-2
3.725000E-8	5.986476E-2
3.730000E-8	5.668693E-2
3.735000E-8	5.354337E-2
3.740000E-8	5.062251E-2
3.745000E-8	4.789866E-2
3.750000E-8	4.539751E-2
3.755000E-8	4.344456E-2
3.760000E-8	4.215116E-2
3.765000E-8	4.130317E-2
3.770000E-8	4.096055E-2
3.775000E-8	4.134600E-2
3.780000E-8	4.230534E-2
3.785000E-8	4.366727E-2
3.790000E-8	4.558596E-2
3.795000E-8	4.805284E-2
3.800000E-8	5.059681E-2
3.805000E-8	5.307226E-2
3.810000E-8	5.579612E-2
3.815000E-8	5.860562E-2
3.820000E-8	6.097829E-2
3.825000E-8	6.289697E-2
3.830000E-8	6.459296E-2
3.835000E-8	6.598058E-2
3.840000E-8	6.683714E-2
3.845000E-8	6.720545E-2
3.850000E-8	6.718832E-2
3.855000E-8	6.686283E-2
3.860000E-8	6.611763E-2
3.865000E-8	6.487562E-2
3.870000E-8	6.330812E-2
3.875000E-8	6.157788E-2
3.880000E-8	5.953070E-2
3.885000E-8	5.700386E-2
3.890000E-8	5.427144E-2
3.895000E-8	5.161612E-2
3.900000E-8	4.888370E-2
3.905000E-8	4.601423E-2
3.910000E-8	4.339317E-2
3.915000E-8	4.132030E-2
3.920000E-8	3.967571E-2
3.925000E-8	3.845940E-2
3.930000E-8	3.789407E-2
3.935000E-8	3.801399E-2
3.940000E-8	3.863071E-2
3.945000E-8	3.982133E-2
3.950000E-8	4.174858E-2
3.955000E-8	4.422403E-2
3.960000E-8	4.681940E-2
3.965000E-8	4.947472E-2
3.970000E-8	5.231849E-2
3.975000E-8	5.523079E-2
3.980000E-8	5.780902E-2
3.985000E-8	5.991615E-2
3.990000E-8	6.178345E-2
3.995000E-8	6.341947E-2
4.000000E-8	6.448160E-2
4.005000E-8	6.486705E-2
4.010000E-8	6.488419E-2
4.015000E-8	6.461009E-2
4.020000E-8	6.379636E-2
4.025000E-8	6.246013E-2
4.030000E-8	6.079841E-2
4.035000E-8	5.881120E-2
4.040000E-8	5.654132E-2
4.045000E-8	5.421148E-2
4.050000E-8	5.184739E-2
4.055000E-8	4.938907E-2
4.060000E-8	4.693075E-2
4.065000E-8	4.461805E-2
4.070000E-8	4.255374E-2
4.075000E-8	4.085776E-2
4.080000E-8	3.947870E-2
4.085000E-8	3.828809E-2
4.090000E-8	3.756002E-2
4.095000E-8	3.751719E-2
4.100000E-8	3.795403E-2
4.105000E-8	3.869067E-2
4.110000E-8	3.999264E-2
4.115000E-8	4.191989E-2
4.120000E-8	4.412124E-2
4.125000E-8	4.649391E-2
4.130000E-8	4.919206E-2
4.135000E-8	5.209579E-2
4.140000E-8	5.478538E-2
4.145000E-8	5.708095E-2
4.150000E-8	5.912812E-2
4.155000E-8	6.092689E-2
4.160000E-8	6.214320E-2
4.165000E-8	6.264001E-2
4.170000E-8	6.265714E-2
4.175000E-8	6.235734E-2
4.180000E-8	6.157788E-2
4.185000E-8	6.031874E-2
4.190000E-8	5.879406E-2
4.195000E-8	5.708095E-2
4.200000E-8	5.504234E-2
4.205000E-8	5.272108E-2
4.210000E-8	5.034841E-2
4.215000E-8	4.809567E-2
4.220000E-8	4.587718E-2
4.225000E-8	4.365014E-2
4.230000E-8	4.161153E-2
4.235000E-8	3.985559E-2
4.240000E-8	3.838231E-2
4.245000E-8	3.719170E-2
4.250000E-8	3.647219E-2
4.255000E-8	3.633514E-2
4.260000E-8	3.671202E-2
4.265000E-8	3.752575E-2
4.270000E-8	3.887055E-2
4.275000E-8	4.078924E-2
4.280000E-8	4.304198E-2
4.285000E-8	4.548317E-2
4.290000E-8	4.819845E-2
4.295000E-8	5.106792E-2
4.300000E-8	5.367185E-2
4.305000E-8	5.586464E-2
4.310000E-8	5.778333E-2
4.315000E-8	5.935939E-2
4.320000E-8	6.030161E-2
4.325000E-8	6.052431E-2
4.330000E-8	6.019882E-2
4.335000E-8	5.947074E-2
4.340000E-8	5.827156E-2
4.345000E-8	5.649849E-2
4.350000E-8	5.439993E-2
4.355000E-8	5.230993E-2
4.360000E-8	5.005718E-2
4.365000E-8	4.749608E-2
4.370000E-8	4.514911E-2
4.375000E-8	4.331608E-2
4.380000E-8	4.152588E-2
4.385000E-8	3.968428E-2
4.390000E-8	3.827096E-2
4.395000E-8	3.739727E-2
4.400000E-8	3.677198E-2
4.405000E-8	3.648932E-2
4.410000E-8	3.666920E-2
4.415000E-8	3.703752E-2
4.420000E-8	3.759428E-2
4.425000E-8	3.849366E-2
4.430000E-8	3.970141E-2
4.435000E-8	4.111473E-2
4.440000E-8	4.269079E-2
4.445000E-8	4.437821E-2
4.450000E-8	4.615985E-2
4.455000E-8	4.812993E-2
4.460000E-8	5.015140E-2
4.465000E-8	5.201870E-2
4.470000E-8	5.375751E-2
4.475000E-8	5.543636E-2
4.480000E-8	5.678116E-2
4.485000E-8	5.759488E-2
4.490000E-8	5.798890E-2
4.495000E-8	5.802316E-2
4.500000E-8	5.746640E-2
4.505000E-8	5.629292E-2
4.510000E-8	5.468259E-2
4.515000E-8	5.273821E-2
4.520000E-8	5.039124E-2
4.525000E-8	4.781300E-2
4.530000E-8	4.522620E-2
4.535000E-8	4.267366E-2
4.540000E-8	4.023247E-2
4.545000E-8	3.809108E-2
4.550000E-8	3.642080E-2
4.555000E-8	3.517022E-2
4.560000E-8	3.431367E-2
4.565000E-8	3.389395E-2
4.570000E-8	3.401387E-2
4.575000E-8	3.468198E-2
4.580000E-8	3.564989E-2
4.585000E-8	3.675485E-2
4.590000E-8	3.811678E-2
4.595000E-8	3.984702E-2
4.600000E-8	4.170575E-2
4.605000E-8	4.355592E-2
4.610000E-8	4.544034E-2
4.615000E-8	4.737616E-2
4.620000E-8	4.926915E-2
4.625000E-8	5.098226E-2
4.630000E-8	5.238702E-2
4.635000E-8	5.350911E-2
4.640000E-8	5.439993E-2
4.645000E-8	5.495669E-2
4.650000E-8	5.507661E-2
4.655000E-8	5.473398E-2
4.660000E-8	5.389456E-2
4.665000E-8	5.266968E-2
4.670000E-8	5.128206E-2
4.675000E-8	4.965460E-2
4.680000E-8	4.765026E-2
4.685000E-8	4.540608E-2
4.690000E-8	4.315333E-2
4.695000E-8	4.093485E-2
4.700000E-8	3.872493E-2
4.705000E-8	3.662637E-2
4.710000E-8	3.483616E-2
4.715000E-8	3.342285E-2
4.720000E-8	3.232645E-2
4.725000E-8	3.158125E-2
4.730000E-8	3.136711E-2
4.735000E-8	3.166690E-2
4.740000E-8	3.228363E-2
4.745000E-8	3.317444E-2
4.750000E-8	3.446785E-2
4.755000E-8	3.612957E-2
4.760000E-8	3.797116E-2
4.765000E-8	3.992411E-2
4.770000E-8	4.193702E-2
4.775000E-8	4.394993E-2
4.780000E-8	4.585149E-2
4.785000E-8	4.756460E-2
4.790000E-8	4.902931E-2
4.795000E-8	5.027989E-2
4.800000E-8	5.130776E-2
4.805000E-8	5.197587E-2
4.810000E-8	5.224997E-2
4.815000E-8	5.227567E-2
4.820000E-8	5.196731E-2
4.825000E-8	5.111931E-2
4.830000E-8	4.981735E-2
4.835000E-8	4.823272E-2
4.840000E-8	4.636542E-2
4.845000E-8	4.419833E-2
4.850000E-8	4.195415E-2
4.855000E-8	3.975280E-2
4.860000E-8	3.750006E-2
4.865000E-8	3.531584E-2
4.870000E-8	3.349137E-2
4.875000E-8	3.206949E-2
4.880000E-8	3.099879E-2
4.885000E-8	3.033924E-2
4.890000E-8	3.021932E-2
4.895000E-8	3.069043E-2
4.900000E-8	3.156412E-2
4.905000E-8	3.267764E-2
4.910000E-8	3.412522E-2
4.915000E-8	3.601821E-2
4.920000E-8	3.801399E-2
4.925000E-8	3.987272E-2
4.930000E-8	4.180854E-2
4.935000E-8	4.378719E-2
4.940000E-8	4.539751E-2
4.945000E-8	4.662239E-2
4.950000E-8	4.777018E-2
4.955000E-8	4.870382E-2
4.960000E-8	4.914923E-2
4.965000E-8	4.926915E-2
4.970000E-8	4.930341E-2
4.975000E-8	4.916636E-2
4.980000E-8	4.865243E-2
4.985000E-8	4.768452E-2
4.990000E-8	4.644251E-2
4.995000E-8	4.508915E-2
5.000000E-8	4.345313E-2
5.005000E-8	4.138883E-2
5.010000E-8	3.915321E-2
5.015000E-8	3.697756E-2
5.020000E-8	3.480190E-2
5.025000E-8	3.260912E-2
5.030000E-8	3.069899E-2
5.035000E-8	2.932850E-2
5.040000E-8	2.850621E-2
5.045000E-8	2.808650E-2
5.050000E-8	2.806080E-2
5.055000E-8	2.856617E-2
5.060000E-8	2.959404E-2
5.065000E-8	3.096453E-2
5.070000E-8	3.265194E-2
5.075000E-8	3.458776E-2
5.080000E-8	3.651502E-2
5.085000E-8	3.830522E-2
5.090000E-8	4.012969E-2
5.095000E-8	4.197128E-2
5.100000E-8	4.353878E-2
5.105000E-8	4.470370E-2
5.110000E-8	4.567161E-2
5.115000E-8	4.651960E-2
5.120000E-8	4.711063E-2
5.125000E-8	4.743612E-2
5.130000E-8	4.753034E-2
5.135000E-8	4.739329E-2
5.140000E-8	4.692218E-2
5.145000E-8	4.609132E-2
5.150000E-8	4.504632E-2
5.155000E-8	4.377862E-2
5.160000E-8	4.220256E-2
5.165000E-8	4.032670E-2
5.170000E-8	3.840801E-2
5.175000E-8	3.655784E-2
5.180000E-8	3.469912E-2
5.185000E-8	3.284895E-2
5.190000E-8	3.128145E-2
5.195000E-8	3.011654E-2
5.200000E-8	2.919145E-2
5.205000E-8	2.856617E-2
5.210000E-8	2.846338E-2
5.215000E-8	2.881457E-2
5.220000E-8	2.941416E-2
5.225000E-8	3.032211E-2
5.230000E-8	3.162408E-2
5.235000E-8	3.315731E-2
5.240000E-8	3.475051E-2
5.245000E-8	3.642080E-2
5.250000E-8	3.818530E-2
5.255000E-8	3.990698E-2
5.260000E-8	4.144022E-2
5.265000E-8	4.268223E-2
5.270000E-8	4.370153E-2
5.275000E-8	4.460091E-2
5.280000E-8	4.528616E-2
5.285000E-8	4.548317E-2
5.290000E-8	4.529473E-2
5.295000E-8	4.495210E-2
5.300000E-8	4.436108E-2
5.305000E-8	4.335034E-2
5.310000E-8	4.207407E-2
5.315000E-8	4.075497E-2
5.320000E-8	3.929026E-2
5.325000E-8	3.761141E-2
5.330000E-8	3.600965E-2
5.335000E-8	3.466485E-2
5.340000E-8	3.335432E-2
5.345000E-8	3.196670E-2
5.350000E-8	3.075895E-2
5.355000E-8	2.985957E-2
5.360000E-8	2.918289E-2
5.365000E-8	2.870322E-2
5.370000E-8	2.854904E-2
5.375000E-8	2.868609E-2
5.380000E-8	2.905441E-2
5.385000E-8	2.970539E-2
5.390000E-8	3.069899E-2
5.395000E-8	3.197526E-2
5.400000E-8	3.338858E-2
5.405000E-8	3.487899E-2
5.410000E-8	3.646362E-2
5.415000E-8	3.811678E-2
5.420000E-8	3.968428E-2
5.425000E-8	4.114042E-2
5.430000E-8	4.241669E-2
5.435000E-8	4.348739E-2
5.440000E-8	4.429255E-2
5.445000E-8	4.477223E-2
5.450000E-8	4.490071E-2
5.455000E-8	4.468657E-2
5.460000E-8	4.412124E-2
5.465000E-8	4.321329E-2
5.470000E-8	4.207407E-2
5.475000E-8	4.079780E-2
5.480000E-8	3.924743E-2
5.485000E-8	3.739727E-2
5.490000E-8	3.553854E-2
5.495000E-8	3.391965E-2
5.500000E-8	3.242067E-2
5.505000E-8	3.086174E-2
5.510000E-8	2.958547E-2
5.515000E-8	2.886596E-2
5.520000E-8	2.842055E-2
5.525000E-8	2.805223E-2
5.530000E-8	2.808650E-2
5.535000E-8	2.866039E-2
5.540000E-8	2.940559E-2
5.545000E-8	3.014223E-2
5.550000E-8	3.107588E-2
5.555000E-8	3.223223E-2
5.560000E-8	3.337145E-2
5.565000E-8	3.445071E-2
5.570000E-8	3.566703E-2
5.575000E-8	3.703752E-2
5.580000E-8	3.834805E-2
5.585000E-8	3.941874E-2
5.590000E-8	4.039522E-2
5.595000E-8	4.135456E-2
5.600000E-8	4.207407E-2
5.605000E-8	4.249378E-2
5.610000E-8	4.269079E-2
5.615000E-8	4.260514E-2
5.620000E-8	4.202268E-2
5.625000E-8	4.108047E-2
5.630000E-8	3.995838E-2
5.635000E-8	3.868211E-2
5.640000E-8	3.714030E-2
5.645000E-8	3.539293E-2
5.650000E-8	3.362842E-2
5.655000E-8	3.205235E-2
5.660000E-8	3.058764E-2
5.665000E-8	2.906297E-2
5.670000E-8	2.771818E-2
5.675000E-8	2.687018E-2
5.680000E-8	2.639908E-2
5.685000E-8	2.604789E-2
5.690000E-8	2.600506E-2
5.695000E-8	2.644191E-2
5.700000E-8	2.712715E-2
5.705000E-8	2.793232E-2
5.710000E-8	2.898588E-2
5.715000E-8	3.028785E-2
5.720000E-8	3.165834E-2
5.725000E-8	3.303740E-2
5.730000E-8	3.443358E-2
5.735000E-8	3.577838E-2
5.740000E-8	3.696899E-2
5.745000E-8	3.802256E-2
5.750000E-8	3.886198E-2
5.755000E-8	3.951297E-2
5.760000E-8	4.001833E-2
5.765000E-8	4.021534E-2
5.770000E-8	4.006116E-2
5.775000E-8	3.970997E-2
5.780000E-8	3.922174E-2
5.785000E-8	3.836518E-2
5.790000E-8	3.726022E-2
5.795000E-8	3.612100E-2
5.800000E-8	3.486186E-2
5.805000E-8	3.337145E-2
5.810000E-8	3.191531E-2
5.815000E-8	3.058764E-2
5.820000E-8	2.920002E-2
5.825000E-8	2.777814E-2
5.830000E-8	2.656182E-2
5.835000E-8	2.559391E-2
5.840000E-8	2.481445E-2
5.845000E-8	2.434334E-2
5.850000E-8	2.429195E-2
5.855000E-8	2.460031E-2
5.860000E-8	2.512281E-2
5.865000E-8	2.586801E-2
5.870000E-8	2.697297E-2
5.875000E-8	2.837773E-2
5.880000E-8	2.979961E-2
5.885000E-8	3.108445E-2
5.890000E-8	3.239498E-2
5.895000E-8	3.372264E-2
5.900000E-8	3.489612E-2
5.905000E-8	3.580407E-2
5.910000E-8	3.650645E-2
5.915000E-8	3.705465E-2
5.920000E-8	3.738014E-2
5.925000E-8	3.738870E-2
5.930000E-8	3.726022E-2
5.935000E-8	3.714030E-2
5.940000E-8	3.684051E-2
5.945000E-8	3.614670E-2
5.950000E-8	3.528157E-2
5.955000E-8	3.445071E-2
5.960000E-8	3.346567E-2
5.965000E-8	3.216371E-2
5.970000E-8	3.080178E-2
5.975000E-8	2.955121E-2
5.980000E-8	2.824924E-2
5.985000E-8	2.693014E-2
5.990000E-8	2.586801E-2
5.995000E-8	2.516564E-2
6.000000E-8	2.474592E-2
6.005000E-8	2.455748E-2
6.010000E-8	2.464314E-2
6.015000E-8	2.513994E-2
6.020000E-8	2.597080E-2
6.025000E-8	2.693014E-2
6.030000E-8	2.802654E-2
6.035000E-8	2.931137E-2
6.040000E-8	3.059621E-2
6.045000E-8	3.171830E-2
6.050000E-8	3.277186E-2
6.055000E-8	3.389395E-2
6.060000E-8	3.493895E-2
6.065000E-8	3.570985E-2
6.070000E-8	3.626662E-2
6.075000E-8	3.675485E-2
6.080000E-8	3.702039E-2
6.085000E-8	3.701182E-2
6.090000E-8	3.687477E-2
6.095000E-8	3.660924E-2
6.100000E-8	3.597539E-2
6.105000E-8	3.501604E-2
6.110000E-8	3.398817E-2
6.115000E-8	3.288321E-2
6.120000E-8	3.162408E-2
6.125000E-8	3.027928E-2
6.130000E-8	2.889166E-2
6.135000E-8	2.753830E-2
6.140000E-8	2.634768E-2
6.145000E-8	2.533695E-2
6.150000E-8	2.440330E-2
6.155000E-8	2.365810E-2
6.160000E-8	2.320412E-2
6.165000E-8	2.299855E-2
6.170000E-8	2.306707E-2
6.175000E-8	2.350392E-2
6.180000E-8	2.420629E-2
6.185000E-8	2.505428E-2
6.190000E-8	2.609928E-2
6.195000E-8	2.731559E-2
6.200000E-8	2.861756E-2
6.205000E-8	2.998805E-2
6.210000E-8	3.146133E-2
6.215000E-8	3.296031E-2
6.220000E-8	3.431367E-2
6.225000E-8	3.545289E-2
6.230000E-8	3.648075E-2
6.235000E-8	3.731161E-2
6.240000E-8	3.769707E-2
6.245000E-8	3.756002E-2
6.250000E-8	3.720026E-2
6.255000E-8	3.667776E-2
6.260000E-8	3.582977E-2
6.265000E-8	3.463059E-2
6.270000E-8	3.331149E-2
6.275000E-8	3.194100E-2
6.280000E-8	3.044203E-2
6.285000E-8	2.893449E-2
6.290000E-8	2.766678E-2
6.295000E-8	2.662178E-2
6.300000E-8	2.555109E-2
6.305000E-8	2.457461E-2
6.310000E-8	2.397502E-2
6.315000E-8	2.361527E-2
6.320000E-8	2.328978E-2
6.325000E-8	2.315273E-2
6.330000E-8	2.336687E-2
6.335000E-8	2.370092E-2
6.340000E-8	2.398359E-2
6.345000E-8	2.443756E-2
6.350000E-8	2.521703E-2
6.355000E-8	2.620207E-2
6.360000E-8	2.717855E-2
6.365000E-8	2.806936E-2
6.370000E-8	2.899445E-2
6.375000E-8	3.005658E-2
6.380000E-8	3.112727E-2
6.385000E-8	3.194957E-2
6.390000E-8	3.252346E-2
6.395000E-8	3.304596E-2
6.400000E-8	3.348280E-2
6.405000E-8	3.361985E-2
6.410000E-8	3.346567E-2
6.415000E-8	3.317444E-2
6.420000E-8	3.268621E-2
6.425000E-8	3.189817E-2
6.430000E-8	3.095596E-2
6.435000E-8	2.997949E-2
6.440000E-8	2.891736E-2
6.445000E-8	2.773531E-2
6.450000E-8	2.655326E-2
6.455000E-8	2.540547E-2
6.460000E-8	2.424912E-2
6.465000E-8	2.315273E-2
6.470000E-8	2.231330E-2
6.475000E-8	2.180793E-2
6.480000E-8	2.148244E-2
6.485000E-8	2.128543E-2
6.490000E-8	2.129400E-2
6.495000E-8	2.152527E-2
6.500000E-8	2.191072E-2
6.505000E-8	2.245035E-2
6.510000E-8	2.323838E-2
6.515000E-8	2.424912E-2
6.520000E-8	2.526842E-2
6.525000E-8	2.624490E-2
6.530000E-8	2.735842E-2
6.535000E-8	2.865182E-2
6.540000E-8	2.979104E-2
6.545000E-8	3.064760E-2
6.550000E-8	3.143563E-2
6.555000E-8	3.221510E-2
6.560000E-8	3.268621E-2
6.565000E-8	3.277186E-2
6.570000E-8	3.269477E-2
6.575000E-8	3.248063E-2
6.580000E-8	3.194957E-2
6.585000E-8	3.115297E-2
6.590000E-8	3.031354E-2
6.595000E-8	2.941416E-2
6.600000E-8	2.828350E-2
6.605000E-8	2.702436E-2
6.610000E-8	2.587658E-2
6.615000E-8	2.492580E-2
6.620000E-8	2.402642E-2
6.625000E-8	2.312703E-2
6.630000E-8	2.242465E-2
6.635000E-8	2.203064E-2
6.640000E-8	2.181650E-2
6.645000E-8	2.162806E-2
6.650000E-8	2.163662E-2
6.655000E-8	2.198781E-2
6.660000E-8	2.251031E-2
6.665000E-8	2.302424E-2
6.670000E-8	2.370092E-2
6.675000E-8	2.471166E-2
6.680000E-8	2.573953E-2
6.685000E-8	2.655326E-2
6.690000E-8	2.737555E-2
6.695000E-8	2.832633E-2
6.700000E-8	2.908867E-2
6.705000E-8	2.955977E-2
6.710000E-8	3.002231E-2
6.715000E-8	3.057051E-2
6.720000E-8	3.098166E-2
6.725000E-8	3.115297E-2
6.730000E-8	3.117867E-2
6.735000E-8	3.115297E-2
6.740000E-8	3.102449E-2
6.745000E-8	3.059621E-2
6.750000E-8	2.984244E-2
6.755000E-8	2.890022E-2
6.760000E-8	2.782096E-2
6.765000E-8	2.659609E-2
6.770000E-8	2.537121E-2
6.775000E-8	2.420629E-2
6.780000E-8	2.295572E-2
6.785000E-8	2.174797E-2
6.790000E-8	2.086572E-2
6.795000E-8	2.036892E-2
6.800000E-8	2.011195E-2
6.805000E-8	2.010338E-2
6.810000E-8	2.040318E-2
6.815000E-8	2.103703E-2
6.820000E-8	2.184219E-2
6.825000E-8	2.263879E-2
6.830000E-8	2.345252E-2
6.835000E-8	2.436904E-2
6.840000E-8	2.519990E-2
6.845000E-8	2.577379E-2
6.850000E-8	2.631342E-2
6.855000E-8	2.701580E-2
6.860000E-8	2.762395E-2
6.865000E-8	2.797514E-2
6.870000E-8	2.838629E-2
6.875000E-8	2.897731E-2
6.880000E-8	2.945699E-2
6.885000E-8	2.967969E-2
6.890000E-8	2.984244E-2
6.895000E-8	2.998805E-2
6.900000E-8	2.985957E-2
6.905000E-8	2.932850E-2
6.910000E-8	2.856617E-2
6.915000E-8	2.766678E-2
6.920000E-8	2.664748E-2
6.925000E-8	2.543973E-2
6.930000E-8	2.415490E-2
6.935000E-8	2.296428E-2
6.940000E-8	2.191072E-2
6.945000E-8	2.089142E-2
6.950000E-8	2.006912E-2
6.955000E-8	1.967511E-2
6.960000E-8	1.962371E-2
6.965000E-8	1.966654E-2
6.970000E-8	1.986355E-2
6.975000E-8	2.042888E-2
6.980000E-8	2.119121E-2
6.985000E-8	2.188502E-2
6.990000E-8	2.257027E-2
6.995000E-8	2.337543E-2
7.000000E-8	2.412920E-2
7.005000E-8	2.470310E-2
7.010000E-8	2.526842E-2
7.015000E-8	2.591941E-2
7.020000E-8	2.653613E-2
7.025000E-8	2.701580E-2
7.030000E-8	2.747834E-2
7.035000E-8	2.794088E-2
7.040000E-8	2.826637E-2
7.045000E-8	2.836916E-2
7.050000E-8	2.831777E-2
7.055000E-8	2.824068E-2
7.060000E-8	2.804367E-2
7.065000E-8	2.758969E-2
7.070000E-8	2.696441E-2
7.075000E-8	2.624490E-2
7.080000E-8	2.543117E-2
7.085000E-8	2.449752E-2
7.090000E-8	2.347822E-2
7.095000E-8	2.241609E-2
7.100000E-8	2.136252E-2
7.105000E-8	2.042031E-2
7.110000E-8	1.969224E-2
7.115000E-8	1.922970E-2
7.120000E-8	1.892990E-2
7.125000E-8	1.871576E-2
7.130000E-8	1.882711E-2
7.135000E-8	1.939244E-2
7.140000E-8	2.006912E-2
7.145000E-8	2.071154E-2
7.150000E-8	2.156810E-2
7.155000E-8	2.263879E-2
7.160000E-8	2.360670E-2
7.165000E-8	2.442043E-2
7.170000E-8	2.525129E-2
7.175000E-8	2.607359E-2
7.180000E-8	2.668174E-2
7.185000E-8	2.704150E-2
7.190000E-8	2.724707E-2
7.195000E-8	2.736699E-2
7.200000E-8	2.738412E-2
7.205000E-8	2.716141E-2
7.210000E-8	2.675883E-2
7.215000E-8	2.639908E-2
7.220000E-8	2.605646E-2
7.225000E-8	2.552539E-2
7.230000E-8	2.485728E-2
7.235000E-8	2.426625E-2
7.240000E-8	2.364953E-2
7.245000E-8	2.287006E-2
7.250000E-8	2.209060E-2
7.255000E-8	2.143105E-2
7.260000E-8	2.067728E-2
7.265000E-8	1.981215E-2
7.270000E-8	1.916117E-2
7.275000E-8	1.886138E-2
7.280000E-8	1.863867E-2
7.285000E-8	1.849306E-2
7.290000E-8	1.867293E-2
7.295000E-8	1.904982E-2
7.300000E-8	1.944384E-2
7.305000E-8	2.007769E-2
7.310000E-8	2.101133E-2
7.315000E-8	2.194498E-2
7.320000E-8	2.274158E-2
7.325000E-8	2.344396E-2
7.330000E-8	2.406068E-2
7.335000E-8	2.467740E-2
7.340000E-8	2.530269E-2
7.345000E-8	2.571383E-2
7.350000E-8	2.592797E-2
7.355000E-8	2.615924E-2
7.360000E-8	2.631342E-2
7.365000E-8	2.615068E-2
7.370000E-8	2.591084E-2
7.375000E-8	2.578236E-2
7.380000E-8	2.549113E-2
7.385000E-8	2.494293E-2
7.390000E-8	2.436047E-2
7.395000E-8	2.380371E-2
7.400000E-8	2.310133E-2
7.405000E-8	2.223621E-2
7.410000E-8	2.137109E-2
7.415000E-8	2.066015E-2
7.420000E-8	2.002629E-2
7.425000E-8	1.940957E-2
7.430000E-8	1.898986E-2
7.435000E-8	1.894703E-2
7.440000E-8	1.904982E-2
7.445000E-8	1.908408E-2
7.450000E-8	1.915261E-2
7.455000E-8	1.942670E-2
7.460000E-8	1.983785E-2
7.465000E-8	2.029183E-2
7.470000E-8	2.083146E-2
7.475000E-8	2.142248E-2
7.480000E-8	2.187646E-2
7.485000E-8	2.224478E-2
7.490000E-8	2.280154E-2
7.495000E-8	2.358957E-2
7.500000E-8	2.419773E-2
7.505000E-8	2.450609E-2
7.510000E-8	2.483158E-2
7.515000E-8	2.529412E-2
7.520000E-8	2.557678E-2
7.525000E-8	2.554252E-2
7.530000E-8	2.537121E-2
7.535000E-8	2.513994E-2
7.540000E-8	2.467740E-2
7.545000E-8	2.397502E-2
7.550000E-8	2.326408E-2
7.555000E-8	2.262166E-2
7.560000E-8	2.191929E-2
7.565000E-8	2.109699E-2
7.570000E-8	2.039461E-2
7.575000E-8	1.990638E-2
7.580000E-8	1.946953E-2
7.585000E-8	1.904125E-2
7.590000E-8	1.883568E-2
7.595000E-8	1.881855E-2
7.600000E-8	1.875859E-2
7.605000E-8	1.863011E-2
7.610000E-8	1.867293E-2
7.615000E-8	1.886138E-2
7.620000E-8	1.891277E-2
7.625000E-8	1.881855E-2
7.630000E-8	1.888707E-2
7.635000E-8	1.924683E-2
7.640000E-8	1.964084E-2
7.645000E-8	2.000060E-2
7.650000E-8	2.051453E-2
7.655000E-8	2.120834E-2
7.660000E-8	2.179937E-2
7.665000E-8	2.229617E-2
7.670000E-8	2.294715E-2
7.675000E-8	2.370949E-2
7.680000E-8	2.422342E-2
7.685000E-8	2.435191E-2
7.690000E-8	2.437760E-2
7.695000E-8	2.437760E-2
7.700000E-8	2.410351E-2
7.705000E-8	2.355531E-2
7.710000E-8	2.293859E-2
7.715000E-8	2.229617E-2
7.720000E-8	2.150814E-2
7.725000E-8	2.061732E-2
7.730000E-8	1.980359E-2
7.735000E-8	1.918687E-2
7.740000E-8	1.867293E-2
7.745000E-8	1.815043E-2
7.750000E-8	1.775642E-2
7.755000E-8	1.766220E-2
7.760000E-8	1.774785E-2
7.765000E-8	1.785064E-2
7.770000E-8	1.809048E-2
7.775000E-8	1.844166E-2
7.780000E-8	1.873289E-2
7.785000E-8	1.904125E-2
7.790000E-8	1.954662E-2
7.795000E-8	2.013765E-2
7.800000E-8	2.072011E-2
7.805000E-8	2.128543E-2
7.810000E-8	2.181650E-2
7.815000E-8	2.221908E-2
7.820000E-8	2.252744E-2
7.825000E-8	2.273301E-2
7.830000E-8	2.284437E-2
7.835000E-8	2.294715E-2
7.840000E-8	2.300711E-2
7.845000E-8	2.287006E-2
7.850000E-8	2.264736E-2
7.855000E-8	2.256170E-2
7.860000E-8	2.244178E-2
7.865000E-8	2.210773E-2
7.870000E-8	2.179937E-2
7.875000E-8	2.167945E-2
7.880000E-8	2.147388E-2
7.885000E-8	2.100277E-2
7.890000E-8	2.046314E-2
7.895000E-8	2.000060E-2
7.900000E-8	1.952949E-2
7.905000E-8	1.894703E-2
7.910000E-8	1.839027E-2
7.915000E-8	1.807334E-2
7.920000E-8	1.797912E-2
7.925000E-8	1.787634E-2
7.930000E-8	1.783351E-2
7.935000E-8	1.807334E-2
7.940000E-8	1.848449E-2
7.945000E-8	1.887851E-2
7.950000E-8	1.933248E-2
7.955000E-8	1.992351E-2
7.960000E-8	2.042031E-2
7.965000E-8	2.072867E-2
7.970000E-8	2.099420E-2
7.975000E-8	2.121691E-2
7.980000E-8	2.125117E-2
7.985000E-8	2.112269E-2
7.990000E-8	2.095138E-2
7.995000E-8	2.084002E-2
8.000000E-8	2.070297E-2
8.005000E-8	2.049740E-2
8.010000E-8	2.034322E-2
8.015000E-8	2.029183E-2
8.020000E-8	2.015478E-2
8.025000E-8	1.988924E-2
8.030000E-8	1.972650E-2
8.035000E-8	1.969224E-2
8.040000E-8	1.947810E-2
8.045000E-8	1.907552E-2
8.050000E-8	1.881855E-2
8.055000E-8	1.872433E-2
8.060000E-8	1.845879E-2
8.065000E-8	1.803908E-2
8.070000E-8	1.777355E-2
8.075000E-8	1.765363E-2
8.080000E-8	1.746519E-2
8.085000E-8	1.727675E-2
8.090000E-8	1.730244E-2
8.095000E-8	1.743093E-2
8.100000E-8	1.753371E-2
8.105000E-8	1.772216E-2
8.110000E-8	1.808191E-2
8.115000E-8	1.851875E-2
8.120000E-8	1.894703E-2
8.125000E-8	1.937531E-2
8.130000E-8	1.985498E-2
8.135000E-8	2.042888E-2
8.140000E-8	2.104560E-2
8.145000E-8	2.152527E-2
8.150000E-8	2.185933E-2
8.155000E-8	2.221051E-2
8.160000E-8	2.247605E-2
8.165000E-8	2.247605E-2
8.170000E-8	2.227047E-2
8.175000E-8	2.196211E-2
8.180000E-8	2.149957E-2
8.185000E-8	2.089142E-2
8.190000E-8	2.024043E-2
8.195000E-8	1.953806E-2
8.200000E-8	1.873289E-2
8.205000E-8	1.789347E-2
8.210000E-8	1.727675E-2
8.215000E-8	1.694269E-2
8.220000E-8	1.657437E-2
8.225000E-8	1.605187E-2
8.230000E-8	1.575207E-2
8.235000E-8	1.581203E-2
8.240000E-8	1.584630E-2
8.245000E-8	1.576921E-2
8.250000E-8	1.587199E-2
8.255000E-8	1.608613E-2
8.260000E-8	1.621462E-2
8.265000E-8	1.650584E-2
8.270000E-8	1.701978E-2
8.275000E-8	1.753371E-2
8.280000E-8	1.796199E-2
8.285000E-8	1.840740E-2
8.290000E-8	1.891277E-2
8.295000E-8	1.951236E-2
8.300000E-8	2.006912E-2
8.305000E-8	2.042031E-2
8.310000E-8	2.061732E-2
8.315000E-8	2.079720E-2
8.320000E-8	2.079720E-2
8.325000E-8	2.054023E-2
8.330000E-8	2.019761E-2
8.335000E-8	1.980359E-2
8.340000E-8	1.921256E-2
8.345000E-8	1.847593E-2
8.350000E-8	1.783351E-2
8.355000E-8	1.736240E-2
8.360000E-8	1.697695E-2
8.365000E-8	1.656580E-2
8.370000E-8	1.625744E-2
8.375000E-8	1.618892E-2
8.380000E-8	1.618892E-2
8.385000E-8	1.612896E-2
8.390000E-8	1.616322E-2
8.395000E-8	1.630027E-2
8.400000E-8	1.636023E-2
8.405000E-8	1.637736E-2
8.410000E-8	1.643732E-2
8.415000E-8	1.651441E-2
8.420000E-8	1.655724E-2
8.425000E-8	1.665146E-2
8.430000E-8	1.683990E-2
8.435000E-8	1.716539E-2
8.440000E-8	1.753371E-2
8.445000E-8	1.791060E-2
8.450000E-8	1.840740E-2
8.455000E-8	1.900699E-2
8.460000E-8	1.946953E-2
8.465000E-8	1.971793E-2
8.470000E-8	1.991494E-2
8.475000E-8	2.005199E-2
8.480000E-8	2.000916E-2
8.485000E-8	1.980359E-2
8.490000E-8	1.957232E-2
8.495000E-8	1.935818E-2
8.500000E-8	1.910121E-2
8.505000E-8	1.877572E-2
8.510000E-8	1.852732E-2
8.515000E-8	1.839027E-2
8.520000E-8	1.820183E-2
8.525000E-8	1.791060E-2
8.530000E-8	1.761080E-2
8.535000E-8	1.733671E-2
8.540000E-8	1.695982E-2
8.545000E-8	1.643732E-2
8.550000E-8	1.588912E-2
8.555000E-8	1.546941E-2
8.560000E-8	1.515248E-2
8.565000E-8	1.482699E-2
8.570000E-8	1.466425E-2
8.575000E-8	1.486982E-2
8.580000E-8	1.525527E-2
8.585000E-8	1.560646E-2
8.590000E-8	1.608613E-2
8.595000E-8	1.681421E-2
8.600000E-8	1.755084E-2
8.605000E-8	1.807334E-2
8.610000E-8	1.839027E-2
8.615000E-8	1.863011E-2
8.620000E-8	1.884425E-2
8.625000E-8	1.888707E-2
8.630000E-8	1.874146E-2
8.635000E-8	1.861298E-2
8.640000E-8	1.850162E-2
8.645000E-8	1.815043E-2
8.650000E-8	1.773072E-2
8.655000E-8	1.750802E-2
8.660000E-8	1.738810E-2
8.665000E-8	1.719966E-2
8.670000E-8	1.711400E-2
8.675000E-8	1.716539E-2
8.680000E-8	1.707974E-2
8.685000E-8	1.689986E-2
8.690000E-8	1.683990E-2
8.695000E-8	1.677138E-2
8.700000E-8	1.652298E-2
8.705000E-8	1.617179E-2
8.710000E-8	1.582060E-2
8.715000E-8	1.547798E-2
8.720000E-8	1.513535E-2
8.725000E-8	1.482699E-2
8.730000E-8	1.455289E-2
8.735000E-8	1.433876E-2
8.740000E-8	1.425310E-2
8.745000E-8	1.434732E-2
8.750000E-8	1.461285E-2
8.755000E-8	1.508396E-2
8.760000E-8	1.570925E-2
8.765000E-8	1.629171E-2
8.770000E-8	1.677994E-2
8.775000E-8	1.735384E-2
8.780000E-8	1.789347E-2
8.785000E-8	1.814187E-2
8.790000E-8	1.823609E-2
8.795000E-8	1.834744E-2
8.800000E-8	1.828748E-2
8.805000E-8	1.796199E-2
8.810000E-8	1.763650E-2
8.815000E-8	1.741380E-2
8.820000E-8	1.710543E-2
8.825000E-8	1.666003E-2
8.830000E-8	1.622318E-2
8.835000E-8	1.591482E-2
8.840000E-8	1.570068E-2
8.845000E-8	1.543515E-2
8.850000E-8	1.515248E-2
8.855000E-8	1.494691E-2
8.860000E-8	1.476703E-2
8.865000E-8	1.457003E-2
8.870000E-8	1.441585E-2
8.875000E-8	1.429593E-2
8.880000E-8	1.419314E-2
8.885000E-8	1.419314E-2
8.890000E-8	1.434732E-2
8.895000E-8	1.462998E-2
8.900000E-8	1.493835E-2
8.905000E-8	1.519531E-2
8.910000E-8	1.551224E-2
8.915000E-8	1.592339E-2
8.920000E-8	1.629171E-2
8.925000E-8	1.651441E-2
8.930000E-8	1.673712E-2
8.935000E-8	1.706261E-2
8.940000E-8	1.733671E-2
8.945000E-8	1.745662E-2
8.950000E-8	1.750802E-2
8.955000E-8	1.759367E-2
8.960000E-8	1.763650E-2
8.965000E-8	1.761937E-2
8.970000E-8	1.761937E-2
8.975000E-8	1.764507E-2
8.980000E-8	1.753371E-2
8.985000E-8	1.726818E-2
8.990000E-8	1.706261E-2
8.995000E-8	1.691699E-2
9.000000E-8	1.657437E-2
9.005000E-8	1.597478E-2
9.010000E-8	1.533236E-2
9.015000E-8	1.478417E-2
9.020000E-8	1.429593E-2
9.025000E-8	1.377343E-2
9.030000E-8	1.325093E-2
9.035000E-8	1.284835E-2
9.040000E-8	1.256568E-2
9.045000E-8	1.245433E-2
9.050000E-8	1.261708E-2
9.055000E-8	1.299396E-2
9.060000E-8	1.336228E-2
9.065000E-8	1.379056E-2
9.070000E-8	1.438158E-2
9.075000E-8	1.498117E-2
9.080000E-8	1.542658E-2
9.085000E-8	1.575207E-2
9.090000E-8	1.596621E-2
9.095000E-8	1.606044E-2
9.100000E-8	1.602617E-2
9.105000E-8	1.583773E-2
9.110000E-8	1.562359E-2
9.115000E-8	1.551224E-2
9.120000E-8	1.533236E-2
9.125000E-8	1.507539E-2
9.130000E-8	1.507539E-2
9.135000E-8	1.535806E-2
9.140000E-8	1.548654E-2
9.145000E-8	1.547798E-2
9.150000E-8	1.558933E-2
9.155000E-8	1.567498E-2
9.160000E-8	1.545228E-2
9.165000E-8	1.510109E-2
9.170000E-8	1.480986E-2
9.175000E-8	1.447580E-2
9.180000E-8	1.397900E-2
9.185000E-8	1.342224E-2
9.190000E-8	1.303679E-2
9.195000E-8	1.281408E-2
9.200000E-8	1.262564E-2
9.205000E-8	1.259138E-2
9.210000E-8	1.281408E-2
9.215000E-8	1.309675E-2
9.220000E-8	1.327662E-2
9.225000E-8	1.347363E-2
9.230000E-8	1.377343E-2
9.235000E-8	1.403896E-2
9.240000E-8	1.419314E-2
9.245000E-8	1.423597E-2
9.250000E-8	1.425310E-2
9.255000E-8	1.432162E-2
9.260000E-8	1.433876E-2
9.265000E-8	1.422740E-2
9.270000E-8	1.420171E-2
9.275000E-8	1.435589E-2
9.280000E-8	1.442441E-2
9.285000E-8	1.430449E-2
9.290000E-8	1.427023E-2
9.295000E-8	1.445011E-2
9.300000E-8	1.452720E-2
9.305000E-8	1.422740E-2
9.310000E-8	1.385908E-2
9.315000E-8	1.370490E-2
9.320000E-8	1.351646E-2
9.325000E-8	1.315671E-2
9.330000E-8	1.288261E-2
9.335000E-8	1.274556E-2
9.340000E-8	1.254855E-2
9.345000E-8	1.240294E-2
9.350000E-8	1.243720E-2
9.355000E-8	1.249716E-2
9.360000E-8	1.249716E-2
9.365000E-8	1.255712E-2
9.370000E-8	1.271986E-2
9.375000E-8	1.295970E-2
9.380000E-8	1.317384E-2
9.385000E-8	1.321667E-2
9.390000E-8	1.319953E-2
9.395000E-8	1.329376E-2
9.400000E-8	1.336228E-2
9.405000E-8	1.330232E-2
9.410000E-8	1.336228E-2
9.415000E-8	1.367921E-2
9.420000E-8	1.394474E-2
9.425000E-8	1.408179E-2
9.430000E-8	1.433019E-2
9.435000E-8	1.474990E-2
9.440000E-8	1.516105E-2
9.445000E-8	1.543515E-2
9.450000E-8	1.556363E-2
9.455000E-8	1.554650E-2
9.460000E-8	1.540945E-2
9.465000E-8	1.518675E-2
9.470000E-8	1.487839E-2
9.475000E-8	1.457859E-2
9.480000E-8	1.420171E-2
9.485000E-8	1.367064E-2
9.490000E-8	1.319097E-2
9.495000E-8	1.286548E-2
9.500000E-8	1.252285E-2
9.505000E-8	1.215454E-2
9.510000E-8	1.206888E-2
9.515000E-8	1.224876E-2
9.520000E-8	1.244576E-2
9.525000E-8	1.265134E-2
9.530000E-8	1.307962E-2
9.535000E-8	1.365351E-2
9.540000E-8	1.413318E-2
9.545000E-8	1.444154E-2
9.550000E-8	1.474134E-2
9.555000E-8	1.511822E-2
9.560000E-8	1.536662E-2
9.565000E-8	1.540089E-2
9.570000E-8	1.536662E-2
9.575000E-8	1.532380E-2
9.580000E-8	1.513535E-2
9.585000E-8	1.484412E-2
9.590000E-8	1.465568E-2
9.595000E-8	1.455289E-2
9.600000E-8	1.433019E-2
9.605000E-8	1.403040E-2
9.610000E-8	1.383339E-2
9.615000E-8	1.373917E-2
9.620000E-8	1.367064E-2
9.625000E-8	1.368777E-2
9.630000E-8	1.373917E-2
9.635000E-8	1.376486E-2
9.640000E-8	1.377343E-2
9.645000E-8	1.378199E-2
9.650000E-8	1.376486E-2
9.655000E-8	1.376486E-2
9.660000E-8	1.370490E-2
9.665000E-8	1.347363E-2
9.670000E-8	1.325949E-2
9.675000E-8	1.319097E-2
9.680000E-8	1.308818E-2
9.685000E-8	1.284835E-2
9.690000E-8	1.266847E-2
9.695000E-8	1.265990E-2
9.700000E-8	1.259994E-2
9.705000E-8	1.248003E-2
9.710000E-8	1.249716E-2
9.715000E-8	1.265134E-2
9.720000E-8	1.275413E-2
9.725000E-8	1.278839E-2
9.730000E-8	1.288261E-2
9.735000E-8	1.301966E-2
9.740000E-8	1.309675E-2
9.745000E-8	1.307962E-2
9.750000E-8	1.299396E-2
9.755000E-8	1.290831E-2
9.760000E-8	1.282265E-2
9.765000E-8	1.269417E-2
9.770000E-8	1.257425E-2
9.775000E-8	1.259994E-2
9.780000E-8	1.265990E-2
9.785000E-8	1.268560E-2
9.790000E-8	1.281408E-2
9.795000E-8	1.305392E-2
9.800000E-8	1.319953E-2
9.805000E-8	1.321667E-2
9.810000E-8	1.321667E-2
9.815000E-8	1.315671E-2
9.820000E-8	1.305392E-2
9.825000E-8	1.295970E-2
9.830000E-8	1.280552E-2
9.835000E-8	1.264277E-2
9.840000E-8	1.253142E-2
9.845000E-8	1.230872E-2
9.850000E-8	1.207745E-2
9.855000E-8	1.209458E-2
9.860000E-8	1.220593E-2
9.865000E-8	1.203462E-2
9.870000E-8	1.188044E-2
9.875000E-8	1.207745E-2
9.880000E-8	1.224019E-2
9.885000E-8	1.206888E-2
9.890000E-8	1.197466E-2
9.895000E-8	1.222306E-2
9.900000E-8	1.242863E-2
9.905000E-8	1.239437E-2
9.910000E-8	1.241150E-2
9.915000E-8	1.268560E-2
9.920000E-8	1.292544E-2
9.925000E-8	1.296826E-2
9.930000E-8	1.297683E-2
9.935000E-8	1.300253E-2
9.940000E-8	1.283122E-2
9.945000E-8	1.249716E-2
9.950000E-8	1.228302E-2
9.955000E-8	1.215454E-2
9.960000E-8	1.191470E-2
9.965000E-8	1.168343E-2
9.970000E-8	1.168343E-2
9.975000E-8	1.183761E-2
9.980000E-8	1.192326E-2
9.985000E-8	1.201749E-2
9.990000E-8	1.230015E-2
9.995000E-8	1.265134E-2
1.000000E-7	1.277982E-2
1.000500E-7	1.271986E-2
1.001000E-7	1.275413E-2
1.001500E-7	1.277126E-2
1.002000E-7	1.245433E-2
1.002500E-7	1.205175E-2
1.003000E-7	1.191470E-2
1.003500E-7	1.187187E-2
1.004000E-7	1.169199E-2
1.004500E-7	1.155495E-2
1.005000E-7	1.161490E-2
1.005500E-7	1.182048E-2
1.006000E-7	1.202605E-2
1.006500E-7	1.208601E-2
1.007000E-7	1.215454E-2
1.007500E-7	1.239437E-2
1.008000E-7	1.258281E-2
1.008500E-7	1.244576E-2
1.009000E-7	1.230015E-2
1.009500E-7	1.229158E-2
1.010000E-7	1.215454E-2
1.010500E-7	1.189757E-2
1.011000E-7	1.178622E-2
1.011500E-7	1.164917E-2
1.012000E-7	1.128941E-2
1.012500E-7	1.096392E-2
1.013000E-7	1.082687E-2
1.013500E-7	1.071552E-2
1.014000E-7	1.053564E-2
1.014500E-7	1.044999E-2
1.015000E-7	1.051851E-2
1.015500E-7	1.077548E-2
1.016000E-7	1.110097E-2
1.016500E-7	1.139220E-2
1.017000E-7	1.172626E-2
1.017500E-7	1.211171E-2
1.018000E-7	1.243720E-2
1.018500E-7	1.268560E-2
1.019000E-7	1.296826E-2
1.019500E-7	1.314814E-2
1.020000E-7	1.310531E-2
1.020500E-7	1.301966E-2
1.021000E-7	1.302822E-2
1.021500E-7	1.294257E-2
1.022000E-7	1.271986E-2
1.022500E-7	1.255712E-2
1.023000E-7	1.247146E-2
1.023500E-7	1.243720E-2
1.024000E-7	1.247146E-2
1.024500E-7	1.258281E-2
1.025000E-7	1.273699E-2
1.025500E-7	1.294257E-2
1.026000E-7	1.302822E-2
1.026500E-7	1.283122E-2
1.027000E-7	1.259994E-2
1.027500E-7	1.247146E-2
1.028000E-7	1.212884E-2
1.028500E-7	1.155495E-2
1.029000E-7	1.113523E-2
1.029500E-7	1.092109E-2
1.030000E-7	1.060417E-2
1.030500E-7	1.030437E-2
1.031000E-7	1.027011E-2
1.031500E-7	1.041572E-2
1.032000E-7	1.060417E-2
1.032500E-7	1.089540E-2
1.033000E-7	1.128085E-2
1.033500E-7	1.166630E-2
1.034000E-7	1.202605E-2
1.034500E-7	1.225732E-2
1.035000E-7	1.237724E-2
1.035500E-7	1.251429E-2
1.036000E-7	1.262564E-2
1.036500E-7	1.251429E-2
1.037000E-7	1.236011E-2
1.037500E-7	1.240294E-2
1.038000E-7	1.247146E-2
1.038500E-7	1.234298E-2
1.039000E-7	1.220593E-2
1.039500E-7	1.225732E-2
1.040000E-7	1.231728E-2
1.040500E-7	1.232585E-2
1.041000E-7	1.238581E-2
1.041500E-7	1.243720E-2
1.042000E-7	1.237724E-2
1.042500E-7	1.225732E-2
1.043000E-7	1.214597E-2
1.043500E-7	1.209458E-2
1.044000E-7	1.205175E-2
1.044500E-7	1.188900E-2
1.045000E-7	1.170913E-2
1.045500E-7	1.163204E-2
1.046000E-7	1.153781E-2
1.046500E-7	1.130654E-2
1.047000E-7	1.113523E-2
1.047500E-7	1.110954E-2
1.048000E-7	1.097249E-2
1.048500E-7	1.074122E-2
1.049000E-7	1.068982E-2
1.049500E-7	1.073265E-2
1.050000E-7	1.059560E-2
1.050500E-7	1.045855E-2
1.051000E-7	1.056134E-2
1.051500E-7	1.074122E-2
1.052000E-7	1.077548E-2
1.052500E-7	1.070695E-2
1.053000E-7	1.077548E-2
1.053500E-7	1.103245E-2
1.054000E-7	1.119519E-2
1.054500E-7	1.104958E-2
1.055000E-7	1.094679E-2
1.055500E-7	1.111810E-2
1.056000E-7	1.124658E-2
1.056500E-7	1.110097E-2
1.057000E-7	1.091253E-2
1.057500E-7	1.087827E-2
1.058000E-7	1.082687E-2
1.058500E-7	1.068982E-2
1.059000E-7	1.051851E-2
1.059500E-7	1.036433E-2
1.060000E-7	1.022728E-2
1.060500E-7	1.013306E-2
1.061000E-7	1.013306E-2
1.061500E-7	1.028724E-2
1.062000E-7	1.048425E-2
1.062500E-7	1.060417E-2
1.063000E-7	1.076691E-2
1.063500E-7	1.104958E-2
1.064000E-7	1.128085E-2
1.064500E-7	1.140933E-2
1.065000E-7	1.163204E-2
1.065500E-7	1.184617E-2
1.066000E-7	1.182048E-2
1.066500E-7	1.166630E-2
1.067000E-7	1.164917E-2
1.067500E-7	1.173482E-2
1.068000E-7	1.177765E-2
1.068500E-7	1.171769E-2
1.069000E-7	1.169199E-2
1.069500E-7	1.181191E-2
1.070000E-7	1.192326E-2
1.070500E-7	1.183761E-2
1.071000E-7	1.169199E-2
1.071500E-7	1.166630E-2
1.072000E-7	1.164917E-2
1.072500E-7	1.150355E-2
1.073000E-7	1.141790E-2
1.073500E-7	1.148642E-2
1.074000E-7	1.149499E-2
1.074500E-7	1.132367E-2
1.075000E-7	1.116949E-2
1.075500E-7	1.120376E-2
1.076000E-7	1.133224E-2
1.076500E-7	1.137507E-2
1.077000E-7	1.144359E-2
1.077500E-7	1.157208E-2
1.078000E-7	1.163204E-2
1.078500E-7	1.155495E-2
1.079000E-7	1.154638E-2
1.079500E-7	1.158064E-2
1.080000E-7	1.136650E-2
1.080500E-7	1.095536E-2
1.081000E-7	1.076691E-2
1.081500E-7	1.077548E-2
1.082000E-7	1.051851E-2
1.082500E-7	1.003027E-2
1.083000E-7	9.790438E-3
1.083500E-7	9.807569E-3
1.084000E-7	9.747610E-3
1.084500E-7	9.619126E-3
1.085000E-7	9.661954E-3
1.085500E-7	9.824700E-3
1.086000E-7	9.927487E-3
1.086500E-7	9.884659E-3
1.087000E-7	9.807569E-3
1.087500E-7	9.781872E-3
1.088000E-7	9.807569E-3
1.088500E-7	9.747610E-3
1.089000E-7	9.559167E-3
1.089500E-7	9.387856E-3
1.090000E-7	9.336463E-3
1.090500E-7	9.293635E-3
1.091000E-7	9.259372E-3
1.091500E-7	9.216545E-3
1.092000E-7	9.156586E-3
1.092500E-7	9.139454E-3
1.093000E-7	9.190848E-3
1.093500E-7	9.190848E-3
1.094000E-7	9.088061E-3
1.094500E-7	9.010971E-3
1.095000E-7	8.959577E-3
1.095500E-7	8.882487E-3
1.096000E-7	8.779700E-3
1.096500E-7	8.668348E-3
1.097000E-7	8.505602E-3
1.097500E-7	8.377119E-3
1.098000E-7	8.300029E-3
1.098500E-7	8.222938E-3
1.099000E-7	8.257201E-3
1.099500E-7	8.565561E-3
1.100000E-7	8.916750E-3
1.100500E-7	9.113758E-3
1.101000E-7	9.404987E-3
1.101500E-7	9.936052E-3
1.102000E-7	1.033007E-2
1.102500E-7	1.050138E-2
1.103000E-7	1.074122E-2
1.103500E-7	1.100675E-2
1.104000E-7	1.098105E-2
1.104500E-7	1.071552E-2
1.105000E-7	1.042429E-2
1.105500E-7	1.012450E-2
1.106000E-7	9.730479E-3
1.106500E-7	9.319331E-3
1.107000E-7	8.951012E-3
1.107500E-7	8.702610E-3
1.108000E-7	8.608389E-3
1.108500E-7	8.582692E-3
1.109000E-7	8.625520E-3
1.109500E-7	8.882487E-3
1.110000E-7	9.148020E-3
1.110500E-7	9.182282E-3
1.111000E-7	9.148020E-3
1.111500E-7	9.293635E-3
1.112000E-7	9.430684E-3
1.112500E-7	9.379290E-3
1.113000E-7	9.362159E-3
1.113500E-7	9.413553E-3
1.114000E-7	9.310766E-3
1.114500E-7	9.070930E-3
1.115000E-7	8.968143E-3
1.115500E-7	8.993840E-3
1.116000E-7	9.019536E-3
1.116500E-7	9.028102E-3
1.117000E-7	9.105192E-3
1.117500E-7	9.190848E-3
1.118000E-7	9.233676E-3
1.118500E-7	9.216545E-3
1.119000E-7	9.207979E-3
1.119500E-7	9.259372E-3
1.120000E-7	9.285069E-3
1.120500E-7	9.233676E-3
1.121000E-7	9.233676E-3
1.121500E-7	9.336463E-3
1.122000E-7	9.404987E-3
1.122500E-7	9.327897E-3
1.123000E-7	9.276504E-3
1.123500E-7	9.379290E-3
1.124000E-7	9.464946E-3
1.124500E-7	9.387856E-3
1.125000E-7	9.345028E-3
1.125500E-7	9.447815E-3
1.126000E-7	9.482077E-3
1.126500E-7	9.345028E-3
1.127000E-7	9.207979E-3
1.127500E-7	9.165151E-3
1.128000E-7	9.130889E-3
1.128500E-7	9.036668E-3
1.129000E-7	8.942446E-3
1.129500E-7	9.002405E-3
1.130000E-7	9.165151E-3
1.130500E-7	9.302200E-3
1.131000E-7	9.413553E-3
1.131500E-7	9.593430E-3
1.132000E-7	9.730479E-3
1.132500E-7	9.696216E-3
1.133000E-7	9.679085E-3
1.133500E-7	9.816134E-3
1.134000E-7	9.884659E-3
1.134500E-7	9.687651E-3
1.135000E-7	9.413553E-3
1.135500E-7	9.233676E-3
1.136000E-7	8.976709E-3
1.136500E-7	8.608389E-3
1.137000E-7	8.351422E-3
1.137500E-7	8.308594E-3
1.138000E-7	8.274332E-3
1.138500E-7	8.222938E-3
1.139000E-7	8.317160E-3
1.139500E-7	8.574127E-3
1.140000E-7	8.831094E-3
1.140500E-7	8.916750E-3
1.141000E-7	8.976709E-3
1.141500E-7	9.182282E-3
1.142000E-7	9.336463E-3
1.142500E-7	9.225110E-3
1.143000E-7	9.113758E-3
1.143500E-7	9.182282E-3
1.144000E-7	9.165151E-3
1.144500E-7	8.976709E-3
1.145000E-7	8.882487E-3
1.145500E-7	8.951012E-3
1.146000E-7	8.882487E-3
1.146500E-7	8.719741E-3
1.147000E-7	8.685479E-3
1.147500E-7	8.796832E-3
1.148000E-7	8.908184E-3
1.148500E-7	8.968143E-3
1.149000E-7	9.053799E-3
1.149500E-7	9.173717E-3
1.150000E-7	9.182282E-3
1.150500E-7	9.036668E-3
1.151000E-7	8.985274E-3
1.151500E-7	9.070930E-3
1.152000E-7	9.028102E-3
1.152500E-7	8.779700E-3
1.153000E-7	8.608389E-3
1.153500E-7	8.565561E-3
1.154000E-7	8.471340E-3
1.154500E-7	8.282897E-3
1.155000E-7	8.171545E-3
1.155500E-7	8.094455E-3
1.156000E-7	7.957406E-3
1.156500E-7	7.828922E-3
1.157000E-7	7.828922E-3
1.157500E-7	7.957406E-3
1.158000E-7	8.128717E-3
1.158500E-7	8.317160E-3
1.159000E-7	8.514168E-3
1.159500E-7	8.728307E-3
1.160000E-7	8.942446E-3
1.160500E-7	9.079495E-3
1.161000E-7	9.130889E-3
1.161500E-7	9.173717E-3
1.162000E-7	9.165151E-3
1.162500E-7	9.002405E-3
1.163000E-7	8.805397E-3
1.163500E-7	8.659783E-3
1.164000E-7	8.377119E-3
1.164500E-7	7.897447E-3
1.165000E-7	7.546258E-3
1.165500E-7	7.426340E-3
1.166000E-7	7.263595E-3
1.166500E-7	7.058021E-3
1.167000E-7	7.032324E-3
1.167500E-7	7.135111E-3
1.168000E-7	7.195070E-3
1.168500E-7	7.160808E-3
1.169000E-7	7.126545E-3
1.169500E-7	7.212201E-3
1.170000E-7	7.332119E-3
1.170500E-7	7.272160E-3
1.171000E-7	7.160808E-3
1.171500E-7	7.203636E-3
1.172000E-7	7.195070E-3
1.172500E-7	7.066586E-3
1.173000E-7	7.092283E-3
1.173500E-7	7.229332E-3
1.174000E-7	7.212201E-3
1.174500E-7	7.117980E-3
1.175000E-7	7.117980E-3
1.175500E-7	7.135111E-3
1.176000E-7	7.075152E-3
1.176500E-7	6.963800E-3
1.177000E-7	6.801054E-3
1.177500E-7	6.698267E-3
1.178000E-7	6.766791E-3
1.178500E-7	6.861013E-3
1.179000E-7	7.006627E-3
1.179500E-7	7.323554E-3
1.180000E-7	7.683308E-3
1.180500E-7	7.931709E-3
1.181000E-7	8.265766E-3
1.181500E-7	8.694045E-3
1.182000E-7	8.925315E-3
1.182500E-7	8.908184E-3
1.183000E-7	8.831094E-3
1.183500E-7	8.745438E-3
1.184000E-7	8.582692E-3
1.184500E-7	8.334291E-3
1.185000E-7	8.085889E-3
1.185500E-7	7.931709E-3
1.186000E-7	7.828922E-3
1.186500E-7	7.751832E-3
1.187000E-7	7.820357E-3
1.187500E-7	8.017365E-3
1.188000E-7	8.214373E-3
1.188500E-7	8.411381E-3
1.189000E-7	8.745438E-3
1.189500E-7	9.105192E-3
1.190000E-7	9.336463E-3
1.190500E-7	9.439249E-3
1.191000E-7	9.601995E-3
1.191500E-7	9.773307E-3
1.192000E-7	9.764741E-3
1.192500E-7	9.619126E-3
1.193000E-7	9.550602E-3
1.193500E-7	9.499208E-3
1.194000E-7	9.310766E-3
1.194500E-7	9.096627E-3
1.195000E-7	8.942446E-3
1.195500E-7	8.736873E-3
1.196000E-7	8.488471E-3
1.196500E-7	8.265766E-3
1.197000E-7	8.043061E-3
1.197500E-7	7.906012E-3
1.198000E-7	7.760398E-3
1.198500E-7	7.486299E-3
1.199000E-7	7.280726E-3
1.199500E-7	7.314988E-3
1.200000E-7	7.323554E-3
1.200500E-7	7.186504E-3
1.201000E-7	7.212201E-3
1.201500E-7	7.400644E-3
1.202000E-7	7.417775E-3
1.202500E-7	7.332119E-3
1.203000E-7	7.426340E-3
1.203500E-7	7.563390E-3
1.204000E-7	7.503431E-3
1.204500E-7	7.297857E-3
1.205000E-7	7.237898E-3
1.205500E-7	7.349250E-3
1.206000E-7	7.409209E-3
1.206500E-7	7.263595E-3
1.207000E-7	7.186504E-3
1.207500E-7	7.340685E-3
1.208000E-7	7.529127E-3
1.208500E-7	7.649045E-3
1.209000E-7	7.803225E-3
1.209500E-7	8.000234E-3
1.210000E-7	8.145848E-3
1.210500E-7	8.291463E-3
1.211000E-7	8.539865E-3
1.211500E-7	8.805397E-3
1.212000E-7	8.899618E-3
1.212500E-7	8.839659E-3
1.213000E-7	8.813963E-3
1.213500E-7	8.891053E-3
1.214000E-7	8.882487E-3
1.214500E-7	8.719741E-3
1.215000E-7	8.479906E-3
1.215500E-7	8.162979E-3
1.216000E-7	7.811791E-3
1.216500E-7	7.511996E-3
1.217000E-7	7.314988E-3
1.217500E-7	7.220767E-3
1.218000E-7	7.186504E-3
1.218500E-7	7.143677E-3
1.219000E-7	7.075152E-3
1.219500E-7	7.058021E-3
1.220000E-7	7.092283E-3
1.220500E-7	7.117980E-3
1.221000E-7	7.177939E-3
1.221500E-7	7.195070E-3
1.222000E-7	7.066586E-3
1.222500E-7	6.912406E-3
1.223000E-7	6.809619E-3
1.223500E-7	6.698267E-3
1.224000E-7	6.595480E-3
1.224500E-7	6.544087E-3
1.225000E-7	6.518390E-3
1.225500E-7	6.526956E-3
1.226000E-7	6.681136E-3
1.226500E-7	6.869578E-3
1.227000E-7	7.083718E-3
1.227500E-7	7.452037E-3
1.228000E-7	7.863184E-3
1.228500E-7	8.137283E-3
1.229000E-7	8.368553E-3
1.229500E-7	8.676914E-3
1.230000E-7	8.899618E-3
1.230500E-7	8.976709E-3
1.231000E-7	8.959577E-3
1.231500E-7	8.916750E-3
1.232000E-7	8.771135E-3
1.232500E-7	8.454209E-3
1.233000E-7	8.111586E-3
1.233500E-7	7.820357E-3
1.234000E-7	7.546258E-3
1.234500E-7	7.280726E-3
1.235000E-7	7.203636E-3
1.235500E-7	7.237898E-3
1.236000E-7	7.263595E-3
1.236500E-7	7.340685E-3
1.237000E-7	7.571955E-3
1.237500E-7	7.811791E-3
1.238000E-7	7.923143E-3
1.238500E-7	7.906012E-3
1.239000E-7	7.803225E-3
1.239500E-7	7.734701E-3
1.240000E-7	7.674742E-3
1.240500E-7	7.452037E-3
1.241000E-7	7.160808E-3
1.241500E-7	7.066586E-3
1.242000E-7	7.023759E-3
1.242500E-7	6.809619E-3
1.243000E-7	6.569783E-3
1.243500E-7	6.492693E-3
1.244000E-7	6.424169E-3
1.244500E-7	6.295685E-3
1.245000E-7	6.261423E-3
1.245500E-7	6.252857E-3
1.246000E-7	6.107243E-3
1.246500E-7	5.901669E-3
1.247000E-7	5.858841E-3
1.247500E-7	6.013021E-3
1.248000E-7	6.158636E-3
1.248500E-7	6.167202E-3
1.249000E-7	6.252857E-3
1.249500E-7	6.526956E-3
1.250000E-7	6.766791E-3
1.250500E-7	6.766791E-3
1.251000E-7	6.749660E-3
1.251500E-7	6.963800E-3
1.252000E-7	7.100849E-3
1.252500E-7	6.946668E-3
1.253000E-7	6.758226E-3
1.253500E-7	6.766791E-3
1.254000E-7	6.818185E-3
1.254500E-7	6.732529E-3
1.255000E-7	6.698267E-3
1.255500E-7	6.861013E-3
1.256000E-7	7.058021E-3
1.256500E-7	7.143677E-3
1.257000E-7	7.237898E-3
1.257500E-7	7.374947E-3
1.258000E-7	7.374947E-3
1.258500E-7	7.289291E-3
1.259000E-7	7.246463E-3
1.259500E-7	7.220767E-3
1.260000E-7	7.177939E-3
1.260500E-7	7.126545E-3
1.261000E-7	7.117980E-3
1.261500E-7	7.177939E-3
1.262000E-7	7.340685E-3
1.262500E-7	7.511996E-3
1.263000E-7	7.631914E-3
1.263500E-7	7.828922E-3
1.264000E-7	8.025930E-3
1.264500E-7	8.008799E-3
1.265000E-7	7.914578E-3
1.265500E-7	7.906012E-3
1.266000E-7	7.743266E-3
1.266500E-7	7.297857E-3
1.267000E-7	6.886709E-3
1.267500E-7	6.664005E-3
1.268000E-7	6.389906E-3
1.268500E-7	6.004456E-3
1.269000E-7	5.730358E-3
1.269500E-7	5.644702E-3
1.270000E-7	5.584743E-3
1.270500E-7	5.524784E-3
1.271000E-7	5.636136E-3
1.271500E-7	5.875972E-3
1.272000E-7	6.004456E-3
1.272500E-7	5.978759E-3
1.273000E-7	6.081546E-3
1.273500E-7	6.329947E-3
1.274000E-7	6.466997E-3
1.274500E-7	6.484128E-3
1.275000E-7	6.655439E-3
1.275500E-7	6.955234E-3
1.276000E-7	7.092283E-3
1.276500E-7	7.152242E-3
1.277000E-7	7.340685E-3
1.277500E-7	7.554824E-3
1.278000E-7	7.554824E-3
1.278500E-7	7.400644E-3
1.279000E-7	7.255029E-3
1.279500E-7	7.135111E-3
1.280000E-7	6.912406E-3
1.280500E-7	6.552652E-3
1.281000E-7	6.175767E-3
1.281500E-7	5.867407E-3
1.282000E-7	5.670399E-3
1.282500E-7	5.670399E-3
1.283000E-7	5.910234E-3
1.283500E-7	6.304251E-3
1.284000E-7	6.698267E-3
1.284500E-7	7.023759E-3
1.285000E-7	7.374947E-3
1.285500E-7	7.811791E-3
1.286000E-7	8.171545E-3
1.286500E-7	8.248635E-3
1.287000E-7	8.128717E-3
1.287500E-7	7.957406E-3
1.288000E-7	7.691873E-3
1.288500E-7	7.323554E-3
1.289000E-7	6.955234E-3
1.289500E-7	6.638308E-3
1.290000E-7	6.347079E-3
1.290500E-7	6.098677E-3
1.291000E-7	5.910234E-3
1.291500E-7	5.764620E-3
1.292000E-7	5.653267E-3
1.292500E-7	5.610440E-3
1.293000E-7	5.644702E-3
1.293500E-7	5.738923E-3
1.294000E-7	5.790316E-3
1.294500E-7	5.790316E-3
1.295000E-7	5.833144E-3
1.295500E-7	5.961628E-3
1.296000E-7	5.978759E-3
1.296500E-7	5.816013E-3
1.297000E-7	5.678964E-3
1.297500E-7	5.747489E-3
1.298000E-7	5.824579E-3
1.298500E-7	5.696095E-3
1.299000E-7	5.490522E-3
1.299500E-7	5.456259E-3
1.300000E-7	5.490522E-3
1.300500E-7	5.387735E-3
1.301000E-7	5.362038E-3
1.301500E-7	5.584743E-3
1.302000E-7	5.773185E-3
1.302500E-7	5.756054E-3
1.303000E-7	5.738923E-3
1.303500E-7	5.910234E-3
1.304000E-7	6.132939E-3
1.304500E-7	6.244292E-3
1.305000E-7	6.278554E-3
1.305500E-7	6.381341E-3
1.306000E-7	6.458431E-3
1.306500E-7	6.381341E-3
1.307000E-7	6.295685E-3
1.307500E-7	6.269988E-3
1.308000E-7	6.098677E-3
1.308500E-7	5.756054E-3
1.309000E-7	5.541915E-3
1.309500E-7	5.481956E-3
1.310000E-7	5.284948E-3
1.310500E-7	5.027981E-3
1.311000E-7	4.942325E-3
1.311500E-7	5.002284E-3
1.312000E-7	5.070809E-3
1.312500E-7	5.139333E-3
1.313000E-7	5.250686E-3
1.313500E-7	5.404866E-3
1.314000E-7	5.541915E-3
1.314500E-7	5.541915E-3
1.315000E-7	5.481956E-3
1.315500E-7	5.533349E-3
1.316000E-7	5.567612E-3
1.316500E-7	5.464825E-3
1.317000E-7	5.362038E-3
1.317500E-7	5.276382E-3
1.318000E-7	5.096505E-3
1.318500E-7	4.950891E-3
1.319000E-7	5.019415E-3
1.319500E-7	5.190727E-3
1.320000E-7	5.250686E-3
1.320500E-7	5.224989E-3
1.321000E-7	5.379169E-3
1.321500E-7	5.704661E-3
1.322000E-7	5.953062E-3
1.322500E-7	6.064415E-3
1.323000E-7	6.338513E-3
1.323500E-7	6.801054E-3
1.324000E-7	7.032324E-3
1.324500E-7	6.963800E-3
1.325000E-7	6.955234E-3
1.325500E-7	7.006627E-3
1.326000E-7	6.809619E-3
1.326500E-7	6.364210E-3
1.327000E-7	5.978759E-3
1.327500E-7	5.713226E-3
1.328000E-7	5.481956E-3
1.328500E-7	5.302079E-3
1.329000E-7	5.242120E-3
1.329500E-7	5.302079E-3
1.330000E-7	5.370604E-3
1.330500E-7	5.456259E-3
1.331000E-7	5.721792E-3
1.331500E-7	6.107243E-3
1.332000E-7	6.398472E-3
1.332500E-7	6.484128E-3
1.333000E-7	6.441300E-3
1.333500E-7	6.381341E-3
1.334000E-7	6.329947E-3
1.334500E-7	6.227161E-3
1.335000E-7	6.055849E-3
1.335500E-7	5.858841E-3
1.336000E-7	5.653267E-3
1.336500E-7	5.456259E-3
1.337000E-7	5.456259E-3
1.337500E-7	5.661833E-3
1.338000E-7	5.833144E-3
1.338500E-7	5.858841E-3
1.339000E-7	5.978759E-3
1.339500E-7	6.201464E-3
1.340000E-7	6.261423E-3
1.340500E-7	6.158636E-3
1.341000E-7	6.158636E-3
1.341500E-7	6.295685E-3
1.342000E-7	6.252857E-3
1.342500E-7	6.047284E-3
1.343000E-7	5.995890E-3
1.343500E-7	6.098677E-3
1.344000E-7	6.072980E-3
1.344500E-7	5.884538E-3
1.345000E-7	5.738923E-3
1.345500E-7	5.730358E-3
1.346000E-7	5.696095E-3
1.346500E-7	5.533349E-3
1.347000E-7	5.344907E-3
1.347500E-7	5.216423E-3
1.348000E-7	5.053677E-3
1.348500E-7	4.813842E-3
1.349000E-7	4.651096E-3
1.349500E-7	4.736751E-3
1.350000E-7	4.899497E-3
1.350500E-7	4.908063E-3
1.351000E-7	4.899497E-3
1.351500E-7	5.079374E-3
1.352000E-7	5.267817E-3
1.352500E-7	5.327776E-3
1.353000E-7	5.421997E-3
1.353500E-7	5.619005E-3
1.354000E-7	5.721792E-3
1.354500E-7	5.593308E-3
1.355000E-7	5.404866E-3
1.355500E-7	5.327776E-3
1.356000E-7	5.259251E-3
1.356500E-7	5.113636E-3
1.357000E-7	4.942325E-3
1.357500E-7	4.865235E-3
1.358000E-7	4.830973E-3
1.358500E-7	4.753883E-3
1.359000E-7	4.711055E-3
1.359500E-7	4.771014E-3
1.360000E-7	4.848104E-3
1.360500E-7	4.873800E-3
1.361000E-7	4.985153E-3
1.361500E-7	5.207858E-3
1.362000E-7	5.302079E-3
1.362500E-7	5.224989E-3
1.363000E-7	5.276382E-3
1.363500E-7	5.481956E-3
1.364000E-7	5.533349E-3
1.364500E-7	5.499087E-3
1.365000E-7	5.670399E-3
1.365500E-7	5.927366E-3
1.366000E-7	5.987325E-3
1.366500E-7	6.047284E-3
1.367000E-7	6.321382E-3
1.367500E-7	6.612611E-3
1.368000E-7	6.741095E-3
1.368500E-7	6.732529E-3
1.369000E-7	6.655439E-3
1.369500E-7	6.535521E-3
1.370000E-7	6.329947E-3
1.370500E-7	5.970193E-3
1.371000E-7	5.584743E-3
1.371500E-7	5.336341E-3
1.372000E-7	5.079374E-3
1.372500E-7	4.745317E-3
1.373000E-7	4.574006E-3
1.373500E-7	4.608268E-3
1.374000E-7	4.548309E-3
1.374500E-7	4.445522E-3
1.375000E-7	4.591137E-3
1.375500E-7	4.942325E-3
1.376000E-7	5.173595E-3
1.376500E-7	5.156464E-3
1.377000E-7	5.087940E-3
1.377500E-7	5.105071E-3
1.378000E-7	5.062243E-3
1.378500E-7	4.788145E-3
1.379000E-7	4.505481E-3
1.379500E-7	4.436956E-3
1.380000E-7	4.359866E-3
1.380500E-7	4.068637E-3
1.381000E-7	3.828801E-3
1.381500E-7	3.965850E-3
1.382000E-7	4.222817E-3
1.382500E-7	4.334170E-3
1.383000E-7	4.531178E-3
1.383500E-7	4.976587E-3
1.384000E-7	5.327776E-3
1.384500E-7	5.404866E-3
1.385000E-7	5.559046E-3
1.385500E-7	5.824579E-3
1.386000E-7	5.867407E-3
1.386500E-7	5.713226E-3
1.387000E-7	5.584743E-3
1.387500E-7	5.430563E-3
1.388000E-7	5.087940E-3
1.388500E-7	4.668227E-3
1.389000E-7	4.359866E-3
1.389500E-7	4.205686E-3
1.390000E-7	4.111465E-3
1.390500E-7	4.042940E-3
1.391000E-7	3.982981E-3
1.391500E-7	4.025809E-3
1.392000E-7	4.197120E-3
1.392500E-7	4.342735E-3
1.393000E-7	4.428391E-3
1.393500E-7	4.633965E-3
1.394000E-7	4.873800E-3
1.394500E-7	4.822407E-3
1.395000E-7	4.582571E-3
1.395500E-7	4.556874E-3
1.396000E-7	4.633965E-3
1.396500E-7	4.436956E-3
1.397000E-7	4.162858E-3
1.397500E-7	4.154293E-3
1.398000E-7	4.197120E-3
1.398500E-7	4.017243E-3
1.399000E-7	3.837367E-3
1.399500E-7	3.863063E-3
1.400000E-7	3.914457E-3
1.400500E-7	3.871629E-3
1.401000E-7	3.880194E-3
1.401500E-7	3.957284E-3
1.402000E-7	3.948719E-3
1.402500E-7	3.923022E-3
1.403000E-7	4.025809E-3
1.403500E-7	4.197120E-3
1.404000E-7	4.317038E-3
1.404500E-7	4.445522E-3
1.405000E-7	4.659661E-3
1.405500E-7	4.899497E-3
1.406000E-7	5.036546E-3
1.406500E-7	5.156464E-3
1.407000E-7	5.362038E-3
1.407500E-7	5.524784E-3
1.408000E-7	5.541915E-3
1.408500E-7	5.490522E-3
1.409000E-7	5.516218E-3
1.409500E-7	5.593308E-3
1.410000E-7	5.533349E-3
1.410500E-7	5.353472E-3
1.411000E-7	5.190727E-3
1.411500E-7	5.087940E-3
1.412000E-7	4.976587E-3
1.412500E-7	4.882366E-3
1.413000E-7	4.873800E-3
1.413500E-7	4.916628E-3
1.414000E-7	4.916628E-3
1.414500E-7	4.899497E-3
1.415000E-7	4.950891E-3
1.415500E-7	5.062243E-3
1.416000E-7	5.053677E-3
1.416500E-7	4.848104E-3
1.417000E-7	4.753883E-3
1.417500E-7	4.899497E-3
1.418000E-7	4.933759E-3
1.418500E-7	4.736751E-3
1.419000E-7	4.616833E-3
1.419500E-7	4.668227E-3
1.420000E-7	4.625399E-3
1.420500E-7	4.522612E-3
1.421000E-7	4.608268E-3
1.421500E-7	4.839538E-3
1.422000E-7	4.976587E-3
1.422500E-7	5.027981E-3
1.423000E-7	5.087940E-3
1.423500E-7	5.207858E-3
1.424000E-7	5.379169E-3
1.424500E-7	5.541915E-3
1.425000E-7	5.696095E-3
1.425500E-7	5.875972E-3
1.426000E-7	6.047284E-3
1.426500E-7	6.218595E-3
1.427000E-7	6.449865E-3
1.427500E-7	6.664005E-3
1.428000E-7	6.766791E-3
1.428500E-7	6.766791E-3
1.429000E-7	6.775357E-3
1.429500E-7	6.792488E-3
1.430000E-7	6.689701E-3
1.430500E-7	6.407038E-3
1.431000E-7	6.098677E-3
1.431500E-7	5.833144E-3
1.432000E-7	5.430563E-3
1.432500E-7	4.865235E-3
1.433000E-7	4.539743E-3
1.433500E-7	4.479784E-3
1.434000E-7	4.274211E-3
1.434500E-7	3.931588E-3
1.435000E-7	3.828801E-3
1.435500E-7	3.965850E-3
1.436000E-7	4.051506E-3
1.436500E-7	4.077202E-3
1.437000E-7	4.205686E-3
1.437500E-7	4.428391E-3
1.438000E-7	4.616833E-3
1.438500E-7	4.788145E-3
1.439000E-7	5.053677E-3
1.439500E-7	5.413431E-3
1.440000E-7	5.670399E-3
1.440500E-7	5.764620E-3
1.441000E-7	5.884538E-3
1.441500E-7	6.047284E-3
1.442000E-7	6.064415E-3
1.442500E-7	5.953062E-3
1.443000E-7	5.901669E-3
1.443500E-7	5.841710E-3
1.444000E-7	5.593308E-3
1.444500E-7	5.207858E-3
1.445000E-7	4.890932E-3
1.445500E-7	4.693924E-3
1.446000E-7	4.445522E-3
1.446500E-7	4.077202E-3
1.447000E-7	3.845932E-3
1.447500E-7	3.897325E-3
1.448000E-7	4.042940E-3
1.448500E-7	4.060071E-3
1.449000E-7	4.042940E-3
1.449500E-7	4.188555E-3
1.450000E-7	4.385563E-3
1.450500E-7	4.488350E-3
1.451000E-7	4.574006E-3
1.451500E-7	4.736751E-3
1.452000E-7	4.848104E-3
1.452500E-7	4.899497E-3
1.453000E-7	5.010850E-3
1.453500E-7	5.147899E-3
1.454000E-7	5.147899E-3
1.454500E-7	5.079374E-3
1.455000E-7	5.062243E-3
1.455500E-7	4.933759E-3
1.456000E-7	4.582571E-3
1.456500E-7	4.197120E-3
1.457000E-7	3.982981E-3
1.457500E-7	3.803104E-3
1.458000E-7	3.511875E-3
1.458500E-7	3.280604E-3
1.459000E-7	3.246342E-3
1.459500E-7	3.254908E-3
1.460000E-7	3.194949E-3
1.460500E-7	3.229211E-3
1.461000E-7	3.451916E-3
1.461500E-7	3.666055E-3
1.462000E-7	3.768842E-3
1.462500E-7	3.923022E-3
1.463000E-7	4.197120E-3
1.463500E-7	4.462653E-3
1.464000E-7	4.608268E-3
1.464500E-7	4.659661E-3
1.465000E-7	4.676792E-3
1.465500E-7	4.668227E-3
1.466000E-7	4.659661E-3
1.466500E-7	4.608268E-3
1.467000E-7	4.488350E-3
1.467500E-7	4.376997E-3
1.468000E-7	4.257079E-3
1.468500E-7	4.042940E-3
1.469000E-7	3.777408E-3
1.469500E-7	3.597531E-3
1.470000E-7	3.443350E-3
1.470500E-7	3.229211E-3
1.471000E-7	3.126424E-3
1.471500E-7	3.152121E-3
1.472000E-7	3.100727E-3
1.472500E-7	2.946547E-3
1.473000E-7	2.946547E-3
1.473500E-7	3.117859E-3
1.474000E-7	3.237777E-3
1.474500E-7	3.323432E-3
1.475000E-7	3.443350E-3
1.475500E-7	3.588965E-3
1.476000E-7	3.648924E-3
1.476500E-7	3.563268E-3
1.477000E-7	3.494744E-3
1.477500E-7	3.606096E-3
1.478000E-7	3.777408E-3
1.478500E-7	3.708883E-3
1.479000E-7	3.597531E-3
1.479500E-7	3.691752E-3
1.480000E-7	3.803104E-3
1.480500E-7	3.717449E-3
1.481000E-7	3.657490E-3
1.481500E-7	3.751711E-3
1.482000E-7	3.820235E-3
1.482500E-7	3.854498E-3
1.483000E-7	3.940153E-3
1.483500E-7	4.051506E-3
1.484000E-7	4.120030E-3
1.484500E-7	4.094334E-3
1.485000E-7	4.068637E-3
1.485500E-7	4.145727E-3
1.486000E-7	4.239948E-3
1.486500E-7	4.248514E-3
1.487000E-7	4.291342E-3
1.487500E-7	4.548309E-3
1.488000E-7	4.745317E-3
1.488500E-7	4.633965E-3
1.489000E-7	4.505481E-3
1.489500E-7	4.574006E-3
1.490000E-7	4.616833E-3
1.490500E-7	4.402694E-3
1.491000E-7	4.197120E-3
1.491500E-7	4.128596E-3
1.492000E-7	3.974416E-3
1.492500E-7	3.640358E-3
1.493000E-7	3.494744E-3
1.493500E-7	3.631793E-3
1.494000E-7	3.768842E-3
1.494500E-7	3.803104E-3
1.495000E-7	3.948719E-3
1.495500E-7	4.257079E-3
1.496000E-7	4.565440E-3
1.496500E-7	4.779579E-3
1.497000E-7	5.019415E-3
1.497500E-7	5.190727E-3
1.498000E-7	5.113636E-3
1.498500E-7	4.925194E-3
1.499000E-7	4.848104E-3
1.499500E-7	4.779579E-3
1.500000E-7	4.522612E-3
1.500500E-7	4.222817E-3
1.501000E-7	4.085768E-3
1.501500E-7	4.034375E-3
1.502000E-7	3.940153E-3
1.502500E-7	3.845932E-3
1.503000E-7	3.828801E-3
1.503500E-7	3.820235E-3
1.504000E-7	3.708883E-3
1.504500E-7	3.494744E-3
1.505000E-7	3.349129E-3
1.505500E-7	3.340563E-3
1.506000E-7	3.314867E-3
1.506500E-7	3.177818E-3
1.507000E-7	3.126424E-3
1.507500E-7	3.237777E-3
1.508000E-7	3.383391E-3
1.508500E-7	3.529006E-3
1.509000E-7	3.768842E-3
1.509500E-7	4.060071E-3
1.510000E-7	4.162858E-3
1.510500E-7	4.060071E-3
1.511000E-7	3.982981E-3
1.511500E-7	3.931588E-3
1.512000E-7	3.700317E-3
1.512500E-7	3.349129E-3
1.513000E-7	3.169252E-3
1.513500E-7	3.143555E-3
1.514000E-7	3.049334E-3
1.514500E-7	2.980809E-3
1.515000E-7	3.186383E-3
1.515500E-7	3.503309E-3
1.516000E-7	3.700317E-3
1.516500E-7	3.888760E-3
1.517000E-7	4.154293E-3
1.517500E-7	4.488350E-3
1.518000E-7	4.745317E-3
1.518500E-7	4.771014E-3
1.519000E-7	4.599702E-3
1.519500E-7	4.496915E-3
1.520000E-7	4.454088E-3
1.520500E-7	4.291342E-3
1.521000E-7	4.102899E-3
1.521500E-7	4.042940E-3
1.522000E-7	3.931588E-3
1.522500E-7	3.803104E-3
1.523000E-7	3.923022E-3
1.523500E-7	4.171424E-3
1.524000E-7	4.205686E-3
1.524500E-7	4.111465E-3
1.525000E-7	4.102899E-3
1.525500E-7	4.102899E-3
1.526000E-7	3.940153E-3
1.526500E-7	3.760276E-3
1.527000E-7	3.751711E-3
1.527500E-7	3.768842E-3
1.528000E-7	3.623227E-3
1.528500E-7	3.417654E-3
1.529000E-7	3.391957E-3
1.529500E-7	3.460481E-3
1.530000E-7	3.374826E-3
1.530500E-7	3.160686E-3
1.531000E-7	3.040768E-3
1.531500E-7	3.049334E-3
1.532000E-7	3.023637E-3
1.532500E-7	2.937982E-3
1.533000E-7	2.886588E-3
1.533500E-7	2.852326E-3
1.534000E-7	2.723842E-3
1.534500E-7	2.535400E-3
1.535000E-7	2.432613E-3
1.535500E-7	2.355523E-3
1.536000E-7	2.201343E-3
1.536500E-7	2.004334E-3
1.537000E-7	1.875851E-3
1.537500E-7	1.901548E-3
1.538000E-7	2.021466E-3
1.538500E-7	2.098556E-3
1.539000E-7	2.175646E-3
1.539500E-7	2.432613E-3
1.540000E-7	2.758105E-3
1.540500E-7	2.929416E-3
1.541000E-7	3.152121E-3
1.541500E-7	3.580399E-3
1.542000E-7	3.957284E-3
1.542500E-7	4.188555E-3
1.543000E-7	4.376997E-3
1.543500E-7	4.514047E-3
1.544000E-7	4.539743E-3
1.544500E-7	4.514047E-3
1.545000E-7	4.394129E-3
1.545500E-7	4.179989E-3
1.546000E-7	4.000112E-3
1.546500E-7	3.794539E-3
1.547000E-7	3.520440E-3
1.547500E-7	3.357695E-3
1.548000E-7	3.237777E-3
1.548500E-7	2.972244E-3
1.549000E-7	2.783801E-3
1.549500E-7	2.860892E-3
1.550000E-7	2.955113E-3
1.550500E-7	2.937982E-3
1.551000E-7	3.023637E-3
1.551500E-7	3.254908E-3
1.552000E-7	3.426219E-3
1.552500E-7	3.520440E-3
1.553000E-7	3.657490E-3
1.553500E-7	3.880194E-3
1.554000E-7	4.060071E-3
1.554500E-7	4.111465E-3
1.555000E-7	4.077202E-3
1.555500E-7	4.111465E-3
1.556000E-7	4.239948E-3
1.556500E-7	4.325604E-3
1.557000E-7	4.351301E-3
1.557500E-7	4.428391E-3
1.558000E-7	4.488350E-3
1.558500E-7	4.428391E-3
1.559000E-7	4.308473E-3
1.559500E-7	4.308473E-3
1.560000E-7	4.265645E-3
1.560500E-7	4.025809E-3
1.561000E-7	3.777408E-3
1.561500E-7	3.734580E-3
1.562000E-7	3.640358E-3
1.562500E-7	3.374826E-3
1.563000E-7	3.220645E-3
1.563500E-7	3.263473E-3
1.564000E-7	3.289170E-3
1.564500E-7	3.289170E-3
1.565000E-7	3.400522E-3
1.565500E-7	3.554703E-3
1.566000E-7	3.597531E-3
1.566500E-7	3.554703E-3
1.567000E-7	3.460481E-3
1.567500E-7	3.417654E-3
1.568000E-7	3.486178E-3
1.568500E-7	3.537572E-3
1.569000E-7	3.511875E-3
1.569500E-7	3.571834E-3
1.570000E-7	3.691752E-3
1.570500E-7	3.760276E-3
1.571000E-7	3.845932E-3
1.571500E-7	4.051506E-3
1.572000E-7	4.179989E-3
1.572500E-7	4.111465E-3
1.573000E-7	3.982981E-3
1.573500E-7	3.905891E-3
1.574000E-7	3.751711E-3
1.574500E-7	3.494744E-3
1.575000E-7	3.340563E-3
1.575500E-7	3.323432E-3
1.576000E-7	3.237777E-3
1.576500E-7	3.117859E-3
1.577000E-7	3.203514E-3
1.577500E-7	3.443350E-3
1.578000E-7	3.511875E-3
1.578500E-7	3.417654E-3
1.579000E-7	3.400522E-3
1.579500E-7	3.409088E-3
1.580000E-7	3.220645E-3
1.580500E-7	2.886588E-3
1.581000E-7	2.629621E-3
1.581500E-7	2.466875E-3
1.582000E-7	2.261302E-3
1.582500E-7	2.038597E-3
1.583000E-7	1.987203E-3
1.583500E-7	2.098556E-3
1.584000E-7	2.167080E-3
1.584500E-7	2.175646E-3
1.585000E-7	2.329826E-3
1.585500E-7	2.629621E-3
1.586000E-7	2.912285E-3
1.586500E-7	3.049334E-3
1.587000E-7	3.117859E-3
1.587500E-7	3.143555E-3
1.588000E-7	3.057900E-3
1.588500E-7	2.869457E-3
1.589000E-7	2.740974E-3
1.589500E-7	2.706711E-3
1.590000E-7	2.655318E-3
1.590500E-7	2.492572E-3
1.591000E-7	2.355523E-3
1.591500E-7	2.406916E-3
1.592000E-7	2.595359E-3
1.592500E-7	2.732408E-3
1.593000E-7	2.852326E-3
1.593500E-7	3.109293E-3
1.594000E-7	3.443350E-3
1.594500E-7	3.700317E-3
1.595000E-7	3.931588E-3
1.595500E-7	4.171424E-3
1.596000E-7	4.248514E-3
1.596500E-7	4.137161E-3
1.597000E-7	4.051506E-3
1.597500E-7	3.974416E-3
1.598000E-7	3.751711E-3
1.598500E-7	3.366260E-3
1.599000E-7	2.972244E-3
1.599500E-7	2.612490E-3
1.600000E-7	2.295564E-3
1.600500E-7	2.038597E-3
1.601000E-7	1.867285E-3
1.601500E-7	1.858720E-3
1.602000E-7	1.995769E-3
1.602500E-7	2.209908E-3
1.603000E-7	2.509703E-3
1.603500E-7	2.903719E-3
1.604000E-7	3.297736E-3
1.604500E-7	3.614662E-3
1.605000E-7	3.940153E-3
1.605500E-7	4.257079E-3
1.606000E-7	4.436956E-3
1.606500E-7	4.394129E-3
1.607000E-7	4.214252E-3
1.607500E-7	4.034375E-3
1.608000E-7	3.785973E-3
1.608500E-7	3.374826E-3
1.609000E-7	2.972244E-3
1.609500E-7	2.732408E-3
1.610000E-7	2.561097E-3
1.610500E-7	2.338392E-3
1.611000E-7	2.261302E-3
1.611500E-7	2.406916E-3
1.612000E-7	2.655318E-3
1.612500E-7	2.895154E-3
1.613000E-7	3.177818E-3
1.613500E-7	3.546137E-3
1.614000E-7	3.888760E-3
1.614500E-7	4.008678E-3
1.615000E-7	3.965850E-3
1.615500E-7	3.965850E-3
1.616000E-7	3.914457E-3
1.616500E-7	3.717449E-3
1.617000E-7	3.546137E-3
1.617500E-7	3.477613E-3
1.618000E-7	3.374826E-3
1.618500E-7	3.246342E-3
1.619000E-7	3.229211E-3
1.619500E-7	3.246342E-3
1.620000E-7	3.212080E-3
1.620500E-7	3.177818E-3
1.621000E-7	3.126424E-3
1.621500E-7	3.049334E-3
1.622000E-7	2.989375E-3
1.622500E-7	2.912285E-3
1.623000E-7	2.783801E-3
1.623500E-7	2.698146E-3
1.624000E-7	2.612490E-3
1.624500E-7	2.518269E-3
1.625000E-7	2.501138E-3
1.625500E-7	2.586793E-3
1.626000E-7	2.621056E-3
1.626500E-7	2.543965E-3
1.627000E-7	2.441179E-3
1.627500E-7	2.338392E-3
1.628000E-7	2.218474E-3
1.628500E-7	2.072859E-3
1.629000E-7	1.935810E-3
1.629500E-7	1.875851E-3
1.630000E-7	1.867285E-3
1.630500E-7	1.755933E-3
1.631000E-7	1.644581E-3
1.631500E-7	1.687408E-3
1.632000E-7	1.807326E-3
1.632500E-7	1.850154E-3
1.633000E-7	1.918679E-3
1.633500E-7	2.115687E-3
1.634000E-7	2.389785E-3
1.634500E-7	2.543965E-3
1.635000E-7	2.612490E-3
1.635500E-7	2.715277E-3
1.636000E-7	2.860892E-3
1.636500E-7	2.929416E-3
1.637000E-7	2.903719E-3
1.637500E-7	2.912285E-3
1.638000E-7	2.903719E-3
1.638500E-7	2.715277E-3
1.639000E-7	2.484006E-3
1.639500E-7	2.424047E-3
1.640000E-7	2.406916E-3
1.640500E-7	2.329826E-3
1.641000E-7	2.304129E-3
1.641500E-7	2.424047E-3
1.642000E-7	2.518269E-3
1.642500E-7	2.526834E-3
1.643000E-7	2.681015E-3
1.643500E-7	2.920850E-3
1.644000E-7	2.920850E-3
1.644500E-7	2.715277E-3
1.645000E-7	2.723842E-3
1.645500E-7	2.895154E-3
1.646000E-7	2.946547E-3
1.646500E-7	2.886588E-3
1.647000E-7	2.860892E-3
1.647500E-7	2.809498E-3
1.648000E-7	2.698146E-3
1.648500E-7	2.612490E-3
1.649000E-7	2.586793E-3
1.649500E-7	2.535400E-3
1.650000E-7	2.381220E-3
1.650500E-7	2.209908E-3
1.651000E-7	2.124252E-3
1.651500E-7	2.175646E-3
1.652000E-7	2.252736E-3
1.652500E-7	2.269867E-3
1.653000E-7	2.312695E-3
1.653500E-7	2.501138E-3
1.654000E-7	2.732408E-3
1.654500E-7	2.835195E-3
1.655000E-7	2.963678E-3
1.655500E-7	3.263473E-3
1.656000E-7	3.417654E-3
1.656500E-7	3.272039E-3
1.657000E-7	3.186383E-3
1.657500E-7	3.254908E-3
1.658000E-7	3.134990E-3
1.658500E-7	2.852326E-3
1.659000E-7	2.758105E-3
1.659500E-7	2.775236E-3
1.660000E-7	2.629621E-3
1.660500E-7	2.415482E-3
1.661000E-7	2.304129E-3
1.661500E-7	2.278433E-3
1.662000E-7	2.329826E-3
1.662500E-7	2.415482E-3
1.663000E-7	2.406916E-3
1.663500E-7	2.346957E-3
1.664000E-7	2.295564E-3
1.664500E-7	2.227039E-3
1.665000E-7	2.158515E-3
1.665500E-7	2.149949E-3
1.666000E-7	2.038597E-3
1.666500E-7	1.790195E-3
1.667000E-7	1.636015E-3
1.667500E-7	1.644581E-3
1.668000E-7	1.618884E-3
1.668500E-7	1.584622E-3
1.669000E-7	1.730236E-3
1.669500E-7	1.995769E-3
1.670000E-7	2.167080E-3
1.670500E-7	2.338392E-3
1.671000E-7	2.638187E-3
1.671500E-7	2.937982E-3
1.672000E-7	3.015072E-3
1.672500E-7	2.903719E-3
1.673000E-7	2.809498E-3
1.673500E-7	2.732408E-3
1.674000E-7	2.552531E-3
1.674500E-7	2.312695E-3
1.675000E-7	2.124252E-3
1.675500E-7	1.995769E-3
1.676000E-7	1.833023E-3
1.676500E-7	1.661712E-3
1.677000E-7	1.644581E-3
1.677500E-7	1.695974E-3
1.678000E-7	1.670277E-3
1.678500E-7	1.601753E-3
1.679000E-7	1.567490E-3
1.679500E-7	1.524663E-3
1.680000E-7	1.481835E-3
1.680500E-7	1.498966E-3
1.681000E-7	1.550359E-3
1.681500E-7	1.627449E-3
1.682000E-7	1.790195E-3
1.682500E-7	1.978638E-3
1.683000E-7	2.124252E-3
1.683500E-7	2.381220E-3
1.684000E-7	2.672449E-3
1.684500E-7	2.800933E-3
1.685000E-7	2.852326E-3
1.685500E-7	2.937982E-3
1.686000E-7	2.878023E-3
1.686500E-7	2.603924E-3
1.687000E-7	2.372654E-3
1.687500E-7	2.227039E-3
1.688000E-7	2.021466E-3
1.688500E-7	1.841589E-3
1.689000E-7	1.755933E-3
1.689500E-7	1.678843E-3
1.690000E-7	1.610318E-3
1.690500E-7	1.618884E-3
1.691000E-7	1.738802E-3
1.691500E-7	1.884417E-3
1.692000E-7	2.021466E-3
1.692500E-7	2.098556E-3
1.693000E-7	2.149949E-3
1.693500E-7	2.278433E-3
1.694000E-7	2.406916E-3
1.694500E-7	2.398351E-3
1.695000E-7	2.355523E-3
1.695500E-7	2.364088E-3
1.696000E-7	2.209908E-3
1.696500E-7	1.867285E-3
1.697000E-7	1.636015E-3
1.697500E-7	1.584622E-3
1.698000E-7	1.456138E-3
1.698500E-7	1.199171E-3
1.699000E-7	1.096384E-3
1.699500E-7	1.233433E-3
1.700000E-7	1.387613E-3
1.700500E-7	1.516097E-3
1.701000E-7	1.738802E-3
1.701500E-7	2.072859E-3
1.702000E-7	2.321261E-3
1.702500E-7	2.432613E-3
1.703000E-7	2.552531E-3
1.703500E-7	2.698146E-3
1.704000E-7	2.672449E-3
1.704500E-7	2.424047E-3
1.705000E-7	2.124252E-3
1.705500E-7	1.927244E-3
1.706000E-7	1.781630E-3
1.706500E-7	1.610318E-3
1.707000E-7	1.498966E-3
1.707500E-7	1.464704E-3
1.708000E-7	1.421876E-3
1.708500E-7	1.404745E-3
1.709000E-7	1.636015E-3
1.709500E-7	2.012900E-3
1.710000E-7	2.209908E-3
1.710500E-7	2.235605E-3
1.711000E-7	2.364088E-3
1.711500E-7	2.586793E-3
1.712000E-7	2.638187E-3
1.712500E-7	2.578228E-3
1.713000E-7	2.621056E-3
1.713500E-7	2.672449E-3
1.714000E-7	2.561097E-3
1.714500E-7	2.415482E-3
1.715000E-7	2.372654E-3
1.715500E-7	2.364088E-3
1.716000E-7	2.286998E-3
1.716500E-7	2.141384E-3
1.717000E-7	1.978638E-3
1.717500E-7	1.807326E-3
1.718000E-7	1.584622E-3
1.718500E-7	1.387613E-3
1.719000E-7	1.293392E-3
1.719500E-7	1.207736E-3
1.720000E-7	1.070687E-3
1.720500E-7	1.010728E-3
1.721000E-7	1.147777E-3
1.721500E-7	1.404745E-3
1.722000E-7	1.636015E-3
1.722500E-7	1.858720E-3
1.723000E-7	2.252736E-3
1.723500E-7	2.809498E-3
1.724000E-7	3.263473E-3
1.724500E-7	3.494744E-3
1.725000E-7	3.751711E-3
1.725500E-7	4.034375E-3
1.726000E-7	4.085768E-3
1.726500E-7	3.974416E-3
1.727000E-7	4.008678E-3
1.727500E-7	4.025809E-3
1.728000E-7	3.820235E-3
1.728500E-7	3.537572E-3
1.729000E-7	3.314867E-3
1.729500E-7	3.083596E-3
1.730000E-7	2.775236E-3
1.730500E-7	2.381220E-3
1.731000E-7	1.935810E-3
1.731500E-7	1.584622E-3
1.732000E-7	1.327654E-3
1.732500E-7	1.070687E-3
1.733000E-7	9.422038E-4
1.733500E-7	1.044991E-3
1.734000E-7	1.122081E-3
1.734500E-7	1.070687E-3
1.735000E-7	1.104950E-3
1.735500E-7	1.259130E-3
1.736000E-7	1.379048E-3
1.736500E-7	1.464704E-3
1.737000E-7	1.636015E-3
1.737500E-7	1.824458E-3
1.738000E-7	1.927244E-3
1.738500E-7	2.089990E-3
1.739000E-7	2.398351E-3
1.739500E-7	2.689580E-3
1.740000E-7	2.783801E-3
1.740500E-7	2.792367E-3
1.741000E-7	2.860892E-3
1.741500E-7	2.955113E-3
1.742000E-7	2.963678E-3
1.742500E-7	2.826629E-3
1.743000E-7	2.518269E-3
1.743500E-7	2.235605E-3
1.744000E-7	2.030031E-3
1.744500E-7	1.687408E-3
1.745000E-7	1.327654E-3
1.745500E-7	1.259130E-3
1.746000E-7	1.379048E-3
1.746500E-7	1.404745E-3
1.747000E-7	1.447572E-3
1.747500E-7	1.704540E-3
1.748000E-7	1.944375E-3
1.748500E-7	2.021466E-3
1.749000E-7	2.072859E-3
1.749500E-7	2.141384E-3
1.750000E-7	2.115687E-3
1.750500E-7	1.987203E-3
1.751000E-7	1.858720E-3
1.751500E-7	1.833023E-3
1.752000E-7	1.807326E-3
1.752500E-7	1.670277E-3
1.753000E-7	1.610318E-3
1.753500E-7	1.755933E-3
1.754000E-7	1.918679E-3
1.754500E-7	1.961507E-3
1.755000E-7	2.055728E-3
1.755500E-7	2.201343E-3
1.756000E-7	2.218474E-3
1.756500E-7	2.072859E-3
1.757000E-7	1.935810E-3
1.757500E-7	1.841589E-3
1.758000E-7	1.661712E-3
1.758500E-7	1.353351E-3
1.759000E-7	1.087818E-3
1.759500E-7	1.019294E-3
1.760000E-7	1.036425E-3
1.760500E-7	9.336382E-4
1.761000E-7	9.250726E-4
1.761500E-7	1.164909E-3
1.762000E-7	1.421876E-3
1.762500E-7	1.524663E-3
1.763000E-7	1.713105E-3
1.763500E-7	2.089990E-3
1.764000E-7	2.372654E-3
1.764500E-7	2.389785E-3
1.765000E-7	2.355523E-3
1.765500E-7	2.432613E-3
1.766000E-7	2.398351E-3
1.766500E-7	2.132818E-3
1.767000E-7	1.824458E-3
1.767500E-7	1.601753E-3
1.768000E-7	1.344786E-3
1.768500E-7	1.070687E-3
1.769000E-7	9.336382E-4
1.769500E-7	8.565481E-4
1.770000E-7	7.366301E-4
1.770500E-7	6.167121E-4
1.771000E-7	6.081465E-4
1.771500E-7	6.938022E-4
1.772000E-7	7.708924E-4
1.772500E-7	7.794580E-4
1.773000E-7	8.394169E-4
1.773500E-7	1.070687E-3
1.774000E-7	1.370482E-3
1.774500E-7	1.541794E-3
1.775000E-7	1.687408E-3
1.775500E-7	1.944375E-3
1.776000E-7	2.201343E-3
1.776500E-7	2.286998E-3
1.777000E-7	2.295564E-3
1.777500E-7	2.346957E-3
1.778000E-7	2.364088E-3
1.778500E-7	2.227039E-3
1.779000E-7	2.055728E-3
1.779500E-7	1.901548E-3
1.780000E-7	1.721671E-3
1.780500E-7	1.464704E-3
1.781000E-7	1.276261E-3
1.781500E-7	1.173474E-3
1.782000E-7	1.087818E-3
1.782500E-7	9.422038E-4
1.783000E-7	8.394169E-4
1.783500E-7	9.250726E-4
1.784000E-7	1.130646E-3
1.784500E-7	1.310523E-3
1.785000E-7	1.481835E-3
1.785500E-7	1.764499E-3
1.786000E-7	2.038597E-3
1.786500E-7	2.235605E-3
1.787000E-7	2.449744E-3
1.787500E-7	2.663883E-3
1.788000E-7	2.732408E-3
1.788500E-7	2.646752E-3
1.789000E-7	2.484006E-3
1.789500E-7	2.278433E-3
1.790000E-7	2.030031E-3
1.790500E-7	1.773064E-3
1.791000E-7	1.516097E-3
1.791500E-7	1.284827E-3
1.792000E-7	1.122081E-3
1.792500E-7	1.044991E-3
1.793000E-7	1.070687E-3
1.793500E-7	1.173474E-3
1.794000E-7	1.327654E-3
1.794500E-7	1.533228E-3
1.795000E-7	1.721671E-3
1.795500E-7	1.892982E-3
1.796000E-7	2.107121E-3
1.796500E-7	2.321261E-3
1.797000E-7	2.415482E-3
1.797500E-7	2.389785E-3
1.798000E-7	2.278433E-3
1.798500E-7	2.021466E-3
1.799000E-7	1.670277E-3
1.799500E-7	1.490400E-3
1.800000E-7	1.439007E-3
1.800500E-7	1.259130E-3
1.801000E-7	1.044991E-3
1.801500E-7	1.104950E-3
1.802000E-7	1.353351E-3
1.802500E-7	1.498966E-3
1.803000E-7	1.593187E-3
1.803500E-7	1.841589E-3
1.804000E-7	2.158515E-3
1.804500E-7	2.329826E-3
1.805000E-7	2.338392E-3
1.805500E-7	2.389785E-3
1.806000E-7	2.432613E-3
1.806500E-7	2.286998E-3
1.807000E-7	2.047162E-3
1.807500E-7	1.970072E-3
1.808000E-7	1.892982E-3
1.808500E-7	1.618884E-3
1.809000E-7	1.387613E-3
1.809500E-7	1.370482E-3
1.810000E-7	1.259130E-3
1.810500E-7	9.850316E-4
1.811000E-7	9.250726E-4
1.811500E-7	1.139212E-3
1.812000E-7	1.241999E-3
1.812500E-7	1.122081E-3
1.813000E-7	1.096384E-3
1.813500E-7	1.293392E-3
1.814000E-7	1.421876E-3
1.814500E-7	1.413310E-3
1.815000E-7	1.567490E-3
1.815500E-7	1.884417E-3
1.816000E-7	2.081425E-3
1.816500E-7	2.201343E-3
1.817000E-7	2.432613E-3
1.817500E-7	2.706711E-3
1.818000E-7	2.886588E-3
1.818500E-7	2.989375E-3
1.819000E-7	3.006506E-3
1.819500E-7	2.963678E-3
1.820000E-7	2.920850E-3
1.820500E-7	2.749539E-3
1.821000E-7	2.432613E-3
1.821500E-7	2.184211E-3
1.822000E-7	1.978638E-3
1.822500E-7	1.670277E-3
1.823000E-7	1.387613E-3
1.823500E-7	1.344786E-3
1.824000E-7	1.379048E-3
1.824500E-7	1.327654E-3
1.825000E-7	1.293392E-3
1.825500E-7	1.430441E-3
1.826000E-7	1.584622E-3
1.826500E-7	1.576056E-3
1.827000E-7	1.541794E-3
1.827500E-7	1.627449E-3
1.828000E-7	1.636015E-3
1.828500E-7	1.404745E-3
1.829000E-7	1.216302E-3
1.829500E-7	1.293392E-3
1.830000E-7	1.387613E-3
1.830500E-7	1.284827E-3
1.831000E-7	1.199171E-3
1.831500E-7	1.267695E-3
1.832000E-7	1.353351E-3
1.832500E-7	1.396179E-3
1.833000E-7	1.456138E-3
1.833500E-7	1.507531E-3
1.834000E-7	1.456138E-3
1.834500E-7	1.370482E-3
1.835000E-7	1.387613E-3
1.835500E-7	1.439007E-3
1.836000E-7	1.319089E-3
1.836500E-7	1.087818E-3
1.837000E-7	9.679005E-4
1.837500E-7	1.010728E-3
1.838000E-7	1.002163E-3
1.838500E-7	8.736792E-4
1.839000E-7	8.051547E-4
1.839500E-7	9.079415E-4
1.840000E-7	1.070687E-3
1.840500E-7	1.164909E-3
1.841000E-7	1.207736E-3
1.841500E-7	1.276261E-3
1.842000E-7	1.379048E-3
1.842500E-7	1.473269E-3
1.843000E-7	1.576056E-3
1.843500E-7	1.687408E-3
1.844000E-7	1.747367E-3
1.844500E-7	1.695974E-3
1.845000E-7	1.618884E-3
1.845500E-7	1.558925E-3
1.846000E-7	1.456138E-3
1.846500E-7	1.327654E-3
1.847000E-7	1.190605E-3
1.847500E-7	1.070687E-3
1.848000E-7	9.079415E-4
1.848500E-7	7.280645E-4
1.849000E-7	6.338433E-4
1.849500E-7	6.595400E-4
1.850000E-7	6.766711E-4
1.850500E-7	7.023678E-4
1.851000E-7	8.993759E-4
1.851500E-7	1.267695E-3
1.852000E-7	1.533228E-3
1.852500E-7	1.653146E-3
1.853000E-7	1.850154E-3
1.853500E-7	2.141384E-3
1.854000E-7	2.304129E-3
1.854500E-7	2.235605E-3
1.855000E-7	2.107121E-3
1.855500E-7	2.064293E-3
1.856000E-7	2.004334E-3
1.856500E-7	1.790195E-3
1.857000E-7	1.576056E-3
1.857500E-7	1.541794E-3
1.858000E-7	1.490400E-3
1.858500E-7	1.327654E-3
1.859000E-7	1.310523E-3
1.859500E-7	1.379048E-3
1.860000E-7	1.267695E-3
1.860500E-7	1.053556E-3
1.861000E-7	1.019294E-3
1.861500E-7	1.070687E-3
1.862000E-7	9.935972E-4
1.862500E-7	8.651137E-4
1.863000E-7	8.222858E-4
1.863500E-7	8.822448E-4
1.864000E-7	9.935972E-4
1.864500E-7	1.036425E-3
1.865000E-7	1.079253E-3
1.865500E-7	1.259130E-3
1.866000E-7	1.370482E-3
1.866500E-7	1.216302E-3
1.867000E-7	1.002163E-3
1.867500E-7	8.908104E-4
1.868000E-7	6.852367E-4
1.868500E-7	3.340483E-4
1.869000E-7	5.995006E-5
1.869500E-7	-6.853350E-5
1.870000E-7	-2.141482E-4
1.870500E-7	-3.340662E-4
1.871000E-7	-2.312793E-4
1.871500E-7	1.113435E-4
1.872000E-7	4.539663E-4
1.872500E-7	6.424088E-4
1.873000E-7	8.908104E-4
1.873500E-7	1.267695E-3
1.874000E-7	1.481835E-3
1.874500E-7	1.490400E-3
1.875000E-7	1.507531E-3
1.875500E-7	1.490400E-3
1.876000E-7	1.301958E-3
1.876500E-7	1.096384E-3
1.877000E-7	1.062122E-3
1.877500E-7	1.070687E-3
1.878000E-7	1.002163E-3
1.878500E-7	9.422038E-4
1.879000E-7	9.850316E-4
1.879500E-7	1.062122E-3
1.880000E-7	1.079253E-3
1.880500E-7	1.087818E-3
1.881000E-7	1.199171E-3
1.881500E-7	1.284827E-3
1.882000E-7	1.207736E-3
1.882500E-7	1.130646E-3
1.883000E-7	1.156343E-3
1.883500E-7	1.156343E-3
1.884000E-7	1.070687E-3
1.884500E-7	9.422038E-4
1.885000E-7	7.880235E-4
1.885500E-7	7.109334E-4
1.886000E-7	7.280645E-4
1.886500E-7	7.451957E-4
1.887000E-7	7.023678E-4
1.887500E-7	6.595400E-4
1.888000E-7	6.167121E-4
1.888500E-7	5.824498E-4
1.889000E-7	6.766711E-4
1.889500E-7	8.736792E-4
1.890000E-7	1.044991E-3
1.890500E-7	1.156343E-3
1.891000E-7	1.293392E-3
1.891500E-7	1.464704E-3
1.892000E-7	1.533228E-3
1.892500E-7	1.533228E-3
1.893000E-7	1.636015E-3
1.893500E-7	1.841589E-3
1.894000E-7	1.892982E-3
1.894500E-7	1.781630E-3
1.895000E-7	1.824458E-3
1.895500E-7	2.021466E-3
1.896000E-7	2.107121E-3
1.896500E-7	2.115687E-3
1.897000E-7	2.218474E-3
1.897500E-7	2.346957E-3
1.898000E-7	2.415482E-3
1.898500E-7	2.492572E-3
1.899000E-7	2.466875E-3
1.899500E-7	2.372654E-3
1.900000E-7	2.338392E-3
1.900500E-7	2.295564E-3
1.901000E-7	2.149949E-3
1.901500E-7	2.081425E-3
1.902000E-7	2.132818E-3
1.902500E-7	2.038597E-3
1.903000E-7	1.815892E-3
1.903500E-7	1.755933E-3
1.904000E-7	1.730236E-3
1.904500E-7	1.533228E-3
1.905000E-7	1.336220E-3
1.905500E-7	1.293392E-3
1.906000E-7	1.233433E-3
1.906500E-7	1.044991E-3
1.907000E-7	9.165071E-4
1.907500E-7	9.507694E-4
1.908000E-7	1.053556E-3
1.908500E-7	1.113515E-3
1.909000E-7	1.122081E-3
1.909500E-7	1.122081E-3
1.910000E-7	1.164909E-3
1.910500E-7	1.241999E-3
1.911000E-7	1.301958E-3
1.911500E-7	1.301958E-3
1.912000E-7	1.216302E-3
1.912500E-7	1.104950E-3
1.913000E-7	1.104950E-3
1.913500E-7	1.241999E-3
1.914000E-7	1.361917E-3
1.914500E-7	1.413310E-3
1.915000E-7	1.541794E-3
1.915500E-7	1.790195E-3
1.916000E-7	1.978638E-3
1.916500E-7	2.038597E-3
1.917000E-7	2.089990E-3
1.917500E-7	2.141384E-3
1.918000E-7	2.107121E-3
1.918500E-7	2.004334E-3
1.919000E-7	1.927244E-3
1.919500E-7	1.841589E-3
1.920000E-7	1.670277E-3
1.920500E-7	1.379048E-3
1.921000E-7	1.053556E-3
1.921500E-7	8.222858E-4
1.922000E-7	6.424088E-4
1.922500E-7	4.796630E-4
1.923000E-7	3.768762E-4
1.923500E-7	3.340483E-4
1.924000E-7	2.398270E-4
1.924500E-7	1.541713E-4
1.925000E-7	2.483926E-4
1.925500E-7	4.625319E-4
1.926000E-7	5.567531E-4
1.926500E-7	4.368351E-4
1.927000E-7	3.768762E-4
1.927500E-7	5.653187E-4
1.928000E-7	8.394169E-4
1.928500E-7	9.165071E-4
1.929000E-7	8.736792E-4
1.929500E-7	9.250726E-4
1.930000E-7	1.002163E-3
1.930500E-7	9.250726E-4
1.931000E-7	8.736792E-4
1.931500E-7	1.002163E-3
1.932000E-7	1.104950E-3
1.932500E-7	1.070687E-3
1.933000E-7	1.122081E-3
1.933500E-7	1.336220E-3
1.934000E-7	1.550359E-3
1.934500E-7	1.781630E-3
1.935000E-7	2.072859E-3
1.935500E-7	2.346957E-3
1.936000E-7	2.526834E-3
1.936500E-7	2.672449E-3
1.937000E-7	2.766670E-3
1.937500E-7	2.775236E-3
1.938000E-7	2.603924E-3
1.938500E-7	2.261302E-3
1.939000E-7	1.841589E-3
1.939500E-7	1.396179E-3
1.940000E-7	8.222858E-4
1.940500E-7	1.713025E-4
1.941000E-7	-2.826728E-4
1.941500E-7	-4.454186E-4
1.942000E-7	-6.252956E-4
1.942500E-7	-7.709103E-4
1.943000E-7	-5.995988E-4
1.943500E-7	-5.996793E-5
1.944000E-7	4.796630E-4
1.944500E-7	8.993759E-4
1.945000E-7	1.344786E-3
1.945500E-7	1.858720E-3
1.946000E-7	2.227039E-3
1.946500E-7	2.346957E-3
1.947000E-7	2.338392E-3
1.947500E-7	2.364088E-3
1.948000E-7	2.346957E-3
1.948500E-7	2.175646E-3
1.949000E-7	1.987203E-3
1.949500E-7	1.970072E-3
1.950000E-7	2.047162E-3
1.950500E-7	1.987203E-3
1.951000E-7	1.850154E-3
1.951500E-7	1.850154E-3
1.952000E-7	1.867285E-3
1.952500E-7	1.678843E-3
1.953000E-7	1.464704E-3
1.953500E-7	1.327654E-3
1.954000E-7	1.036425E-3
1.954500E-7	5.481876E-4
1.955000E-7	2.226959E-4
1.955500E-7	1.798680E-4
1.956000E-7	1.199090E-4
1.956500E-7	8.556635E-6
1.957000E-7	6.851563E-5
1.957500E-7	2.912205E-4
1.958000E-7	4.710974E-4
1.958500E-7	5.738843E-4
1.959000E-7	6.852367E-4
1.959500E-7	7.794580E-4
1.960000E-7	6.681055E-4
1.960500E-7	3.340483E-4
1.961000E-7	5.138449E-5
1.961500E-7	-6.853350E-5
1.962000E-7	-2.741072E-4
1.962500E-7	-6.167300E-4
1.963000E-7	-7.537791E-4
1.963500E-7	-6.167300E-4
1.964000E-7	-5.225087E-4
1.964500E-7	-5.139431E-4
1.965000E-7	-3.854596E-4
1.965500E-7	-9.423021E-5
1.966000E-7	6.851563E-5
1.966500E-7	1.712221E-5
1.967000E-7	-2.570565E-5
1.967500E-7	7.708120E-5
1.968000E-7	1.027779E-4
1.968500E-7	-8.566464E-5
1.969000E-7	-2.398449E-4
1.969500E-7	-2.227138E-4
1.970000E-7	-2.398449E-4
1.970500E-7	-3.940252E-4
1.971000E-7	-4.454186E-4
1.971500E-7	-1.713203E-4
1.972000E-7	1.798680E-4
1.972500E-7	3.426139E-4
1.973000E-7	5.053597E-4
1.973500E-7	8.993759E-4
1.974000E-7	1.284827E-3
1.974500E-7	1.413310E-3
1.975000E-7	1.456138E-3
1.975500E-7	1.567490E-3
1.976000E-7	1.541794E-3
1.976500E-7	1.301958E-3
1.977000E-7	1.027859E-3
1.977500E-7	8.565481E-4
1.978000E-7	6.852367E-4
1.978500E-7	5.224908E-4
1.979000E-7	4.539663E-4
1.979500E-7	5.310564E-4
1.980000E-7	6.424088E-4
1.980500E-7	7.794580E-4
1.981000E-7	1.062122E-3
1.981500E-7	1.473269E-3
1.982000E-7	1.721671E-3
1.982500E-7	1.815892E-3
1.983000E-7	1.970072E-3
1.983500E-7	2.107121E-3
1.984000E-7	1.978638E-3
1.984500E-7	1.678843E-3
1.985000E-7	1.456138E-3
1.985500E-7	1.259130E-3
1.986000E-7	9.679005E-4
1.986500E-7	6.852367E-4
1.987000E-7	5.224908E-4
1.987500E-7	4.967941E-4
1.988000E-7	5.481876E-4
1.988500E-7	5.738843E-4
1.989000E-7	5.310564E-4
1.989500E-7	5.139253E-4
1.990000E-7	4.967941E-4
1.990500E-7	4.282696E-4
1.991000E-7	3.511794E-4
1.991500E-7	2.655237E-4
1.992000E-7	1.199090E-4
1.992500E-7	-8.574505E-6
1.993000E-7	-6.853350E-5
1.993500E-7	-7.709907E-5
1.994000E-7	-5.996793E-5
1.994500E-7	-8.574505E-6
1.995000E-7	4.281892E-5
1.995500E-7	1.113435E-4
1.996000E-7	1.456058E-4
1.996500E-7	1.113435E-4
1.997000E-7	1.199090E-4
1.997500E-7	2.655237E-4
1.998000E-7	3.854417E-4
1.998500E-7	3.683106E-4
1.999000E-7	4.197040E-4
1.999500E-7	6.338433E-4
2.000000E-7	8.565481E-4
