Study Name	044_18
Sample Name	2024-10-03
Run Name	spot00
Operator	Elena
Date	10/3/2024
Time	15:10
Sign	FIX
Grating Spacing	06.40um
Channel	3
Number Traces	2000
Files in Batch	6
Batch Number	68
dt	100.000001E-12
time stamp (ms)	3:22:58 PM
	
Time	Amplitude
0.000000E+0	1.070690E-3
1.000000E-10	8.822472E-4
2.000000E-10	5.567556E-4
3.000000E-10	4.454032E-4
4.000000E-10	3.597474E-4
5.000000E-10	6.338457E-4
6.000000E-10	1.036427E-3
7.000000E-10	1.164911E-3
8.000000E-10	1.481837E-3
9.000000E-10	1.473272E-3
1.000000E-9	1.636017E-3
1.100000E-9	1.636017E-3
1.200000E-9	1.593190E-3
1.300000E-9	1.216304E-3
1.400000E-9	9.507718E-4
1.500000E-9	5.738867E-4
1.600000E-9	3.511819E-4
1.700000E-9	1.456082E-4
1.800000E-9	9.421477E-5
1.900000E-9	-8.572068E-6
2.000000E-9	-1.199245E-4
2.100000E-9	-2.741047E-4
2.200000E-9	-3.254982E-4
2.300000E-9	-3.854572E-4
2.400000E-9	-5.996549E-5
2.500000E-9	5.995249E-5
2.600000E-9	2.997885E-4
2.700000E-9	1.970016E-4
2.800000E-9	8.564920E-5
2.900000E-9	7.708363E-5
3.000000E-9	1.798705E-4
3.100000E-9	5.995834E-4
3.200000E-9	9.336407E-4
3.300000E-9	7.880260E-4
3.400000E-9	7.023703E-4
3.500000E-9	1.627393E-4
3.600000E-9	-1.627523E-4
3.700000E-9	-6.595554E-4
3.800000E-9	-8.479979E-4
3.900000E-9	-8.051701E-4
4.000000E-9	-3.597604E-4
4.100000E-9	-7.709663E-5
4.200000E-9	1.541738E-4
4.300000E-9	3.340507E-4
4.400000E-9	7.280670E-4
4.500000E-9	6.938047E-4
4.600000E-9	8.137227E-4
4.700000E-9	9.764685E-4
4.800000E-9	1.173477E-3
4.900000E-9	1.156345E-3
5.000000E-9	1.439009E-3
5.100000E-9	1.507534E-3
5.200000E-9	1.790198E-3
5.300000E-9	1.567493E-3
5.400000E-9	1.464706E-3
5.500000E-9	1.036427E-3
5.600000E-9	4.454032E-4
5.700000E-9	1.970016E-4
5.800000E-9	1.027803E-4
5.900000E-9	2.655262E-4
6.000000E-9	5.824523E-4
6.100000E-9	7.708948E-4
6.200000E-9	7.708948E-4
6.300000E-9	6.167146E-4
6.400000E-9	4.625343E-4
6.500000E-9	1.541738E-4
6.600000E-9	1.027803E-4
6.700000E-9	-4.283435E-5
6.800000E-9	7.708363E-5
6.900000E-9	3.340507E-4
7.000000E-9	5.139277E-4
7.100000E-9	5.653211E-4
7.200000E-9	4.882310E-4
7.300000E-9	4.197064E-4
7.400000E-9	4.539687E-4
7.500000E-9	7.280670E-4
7.600000E-9	1.216304E-3
7.700000E-9	1.755935E-3
7.800000E-9	2.098558E-3
7.900000E-9	2.338394E-3
8.000000E-9	2.321263E-3
8.100000E-9	1.738804E-3
8.200000E-9	1.473272E-3
8.300000E-9	7.708948E-4
8.400000E-9	3.340507E-4
8.500000E-9	8.559073E-6
8.600000E-9	-3.426878E-5
8.700000E-9	6.851806E-5
8.800000E-9	1.884360E-4
8.900000E-9	5.138692E-5
9.000000E-9	-7.709663E-5
9.100000E-9	-2.655392E-4
9.200000E-9	-3.854572E-4
9.300000E-9	1.712464E-5
9.400000E-9	7.451981E-4
9.500000E-9	1.524665E-3
9.600000E-9	2.064296E-3
9.700000E-9	1.961509E-3
9.800000E-9	1.661714E-3
9.900000E-9	1.010731E-3
1.000000E-8	5.910178E-4
1.010000E-8	5.653211E-4
1.020000E-8	9.850341E-4
1.030000E-8	1.156345E-3
1.040000E-8	1.627452E-3
1.050000E-8	1.370485E-3
1.060000E-8	1.233436E-3
1.070000E-8	8.479849E-4
1.080000E-8	6.167146E-4
1.090000E-8	3.511819E-4
1.100000E-8	4.025753E-4
1.110000E-8	3.083540E-4
1.120000E-8	3.768786E-4
1.130000E-8	7.794604E-4
1.140000E-8	1.122083E-3
1.150000E-8	1.173477E-3
1.160000E-8	1.516099E-3
1.170000E-8	1.207739E-3
1.180000E-8	7.708948E-4
1.190000E-8	2.055672E-4
1.200000E-8	8.564920E-5
1.210000E-8	-8.572068E-6
1.220000E-8	3.340507E-4
1.230000E-8	7.195014E-4
1.240000E-8	1.044993E-3
1.250000E-8	1.182042E-3
1.260000E-8	1.207739E-3
1.270000E-8	1.070690E-3
1.280000E-8	1.087821E-3
1.290000E-8	9.850341E-4
1.300000E-8	9.679029E-4
1.310000E-8	7.280670E-4
1.320000E-8	7.366325E-4
1.330000E-8	3.426163E-4
1.340000E-8	3.426163E-4
1.350000E-8	3.854442E-4
1.360000E-8	7.366325E-4
1.370000E-8	8.993784E-4
1.380000E-8	1.182042E-3
1.390000E-8	9.764685E-4
1.400000E-8	8.394194E-4
1.410000E-8	3.940097E-4
1.420000E-8	2.655262E-4
1.430000E-8	2.569021E-5
1.440000E-8	1.113459E-4
1.450000E-8	5.138692E-5
1.460000E-8	1.970016E-4
1.470000E-8	5.138692E-5
1.480000E-8	8.564920E-5
1.490000E-8	6.851806E-5
1.500000E-8	6.081490E-4
1.510000E-8	7.965915E-4
1.520000E-8	1.404747E-3
1.530000E-8	1.558927E-3
1.540000E-8	1.747370E-3
1.550000E-8	1.618886E-3
1.560000E-8	1.396181E-3
1.570000E-8	1.113518E-3
1.580000E-8	9.422062E-4
1.590000E-8	8.822472E-4
1.600000E-8	8.651161E-4
1.610000E-8	9.079439E-4
1.620000E-8	9.507718E-4
1.630000E-8	8.565505E-4
1.640000E-8	6.595424E-4
1.650000E-8	1.713049E-4
1.660000E-8	7.708363E-5
1.670000E-8	-2.826703E-4
1.680000E-8	-1.884490E-4
1.690000E-8	-1.541868E-4
1.700000E-8	5.138692E-5
1.710000E-8	1.541738E-4
1.720000E-8	1.884360E-4
1.730000E-8	1.456082E-4
1.740000E-8	4.197064E-4
1.750000E-8	4.454032E-4
1.760000E-8	7.195014E-4
1.770000E-8	6.167146E-4
1.780000E-8	4.368376E-4
1.790000E-8	3.768786E-4
1.800000E-8	4.625343E-4
1.810000E-8	5.224933E-4
1.820000E-8	6.338457E-4
1.830000E-8	5.053621E-4
1.840000E-8	4.625343E-4
1.850000E-8	4.454032E-4
1.860000E-8	1.002165E-3
1.870000E-8	1.242001E-3
1.880000E-8	1.884419E-3
1.890000E-8	2.209911E-3
1.900000E-8	2.269870E-3
1.910000E-8	2.089993E-3
1.920000E-8	1.807329E-3
1.930000E-8	1.498968E-3
1.940000E-8	1.430444E-3
1.950000E-8	1.833026E-3
1.960000E-8	3.143558E-3
1.970000E-8	5.130770E-3
1.980000E-8	8.514170E-3
1.990000E-8	1.283978E-2
2.000000E-8	1.844167E-2
2.010000E-8	2.496006E-2
2.020000E-8	3.260055E-2
2.030000E-8	4.097768E-2
2.040000E-8	4.964604E-2
2.050000E-8	5.790325E-2
2.060000E-8	6.481566E-2
2.070000E-8	6.989505E-2
2.080000E-8	7.254181E-2
2.090000E-8	7.312427E-2
2.100000E-8	7.129123E-2
2.110000E-8	6.732538E-2
2.120000E-8	6.180058E-2
2.130000E-8	5.490530E-2
2.140000E-8	4.781301E-2
2.150000E-8	4.120895E-2
2.160000E-8	3.596682E-2
2.170000E-8	3.275473E-2
2.180000E-8	3.180396E-2
2.190000E-8	3.277186E-2
2.200000E-8	3.520449E-2
2.210000E-8	3.878490E-2
2.220000E-8	4.305911E-2
2.230000E-8	4.757317E-2
2.240000E-8	5.248124E-2
2.250000E-8	5.718374E-2
2.260000E-8	6.108107E-2
2.270000E-8	6.369357E-2
2.280000E-8	6.473001E-2
2.290000E-8	6.366788E-2
2.300000E-8	6.115816E-2
2.310000E-8	5.666981E-2
2.320000E-8	5.173604E-2
2.330000E-8	4.648534E-2
2.340000E-8	4.166293E-2
2.350000E-8	3.760285E-2
2.360000E-8	3.487900E-2
2.370000E-8	3.370551E-2
2.380000E-8	3.363699E-2
2.390000E-8	3.523875E-2
2.400000E-8	3.815104E-2
2.410000E-8	4.209121E-2
2.420000E-8	4.650247E-2
2.430000E-8	5.121354E-2
2.440000E-8	5.576186E-2
2.450000E-8	5.967632E-2
2.460000E-8	6.250296E-2
2.470000E-8	6.357366E-2
2.480000E-8	6.297407E-2
2.490000E-8	6.031874E-2
2.500000E-8	5.607878E-2
2.510000E-8	5.050260E-2
2.520000E-8	4.460948E-2
2.530000E-8	3.888768E-2
2.540000E-8	3.427941E-2
2.550000E-8	3.117867E-2
2.560000E-8	3.009084E-2
2.570000E-8	3.105875E-2
2.580000E-8	3.383400E-2
2.590000E-8	3.824526E-2
2.600000E-8	4.335034E-2
2.610000E-8	4.875522E-2
2.620000E-8	5.361190E-2
2.630000E-8	5.742358E-2
2.640000E-8	5.985620E-2
2.650000E-8	6.094403E-2
2.660000E-8	6.061853E-2
2.670000E-8	5.869128E-2
2.680000E-8	5.580468E-2
2.690000E-8	5.160755E-2
2.700000E-8	4.684510E-2
2.710000E-8	4.211690E-2
2.720000E-8	3.793690E-2
2.730000E-8	3.493895E-2
2.740000E-8	3.317445E-2
2.750000E-8	3.314018E-2
2.760000E-8	3.454494E-2
2.770000E-8	3.731162E-2
2.780000E-8	4.094342E-2
2.790000E-8	4.484075E-2
2.800000E-8	4.895223E-2
2.810000E-8	5.244698E-2
2.820000E-8	5.529931E-2
2.830000E-8	5.670407E-2
2.840000E-8	5.659272E-2
2.850000E-8	5.521366E-2
2.860000E-8	5.301231E-2
2.870000E-8	5.019423E-2
2.880000E-8	4.720485E-2
2.890000E-8	4.411268E-2
2.900000E-8	4.134600E-2
2.910000E-8	3.868211E-2
2.920000E-8	3.632658E-2
2.930000E-8	3.440789E-2
2.940000E-8	3.348281E-2
2.950000E-8	3.338859E-2
2.960000E-8	3.473338E-2
2.970000E-8	3.700326E-2
2.980000E-8	4.006973E-2
2.990000E-8	4.364157E-2
3.000000E-8	4.728194E-2
3.010000E-8	5.034841E-2
3.020000E-8	5.293522E-2
3.030000E-8	5.424575E-2
3.040000E-8	5.457124E-2
3.050000E-8	5.378321E-2
3.060000E-8	5.195874E-2
3.070000E-8	4.950899E-2
3.080000E-8	4.621124E-2
3.090000E-8	4.263084E-2
3.100000E-8	3.881916E-2
3.110000E-8	3.489613E-2
3.120000E-8	3.188961E-2
3.130000E-8	2.964543E-2
3.140000E-8	2.901158E-2
3.150000E-8	3.008228E-2
3.160000E-8	3.260912E-2
3.170000E-8	3.659211E-2
3.180000E-8	4.137170E-2
3.190000E-8	4.622838E-2
3.200000E-8	5.027989E-2
3.210000E-8	5.342345E-2
3.220000E-8	5.503378E-2
3.230000E-8	5.513657E-2
3.240000E-8	5.360333E-2
3.250000E-8	5.057969E-2
3.260000E-8	4.664809E-2
3.270000E-8	4.221969E-2
3.280000E-8	3.778272E-2
3.290000E-8	3.395391E-2
3.300000E-8	3.105019E-2
3.310000E-8	2.878887E-2
3.320000E-8	2.800941E-2
3.330000E-8	2.812933E-2
3.340000E-8	2.949982E-2
3.350000E-8	3.241211E-2
3.360000E-8	3.616383E-2
3.370000E-8	4.047231E-2
3.380000E-8	4.455809E-2
3.390000E-8	4.795862E-2
3.400000E-8	5.029702E-2
3.410000E-8	5.105079E-2
3.420000E-8	5.051973E-2
3.430000E-8	4.836120E-2
3.440000E-8	4.526047E-2
3.450000E-8	4.156871E-2
3.460000E-8	3.809108E-2
3.470000E-8	3.471625E-2
3.480000E-8	3.191531E-2
3.490000E-8	2.973109E-2
3.500000E-8	2.813789E-2
3.510000E-8	2.770961E-2
3.520000E-8	2.809506E-2
3.530000E-8	2.947412E-2
3.540000E-8	3.170973E-2
3.550000E-8	3.439076E-2
3.560000E-8	3.778272E-2
3.570000E-8	4.126035E-2
3.580000E-8	4.488358E-2
3.590000E-8	4.804428E-2
3.600000E-8	5.046833E-2
3.610000E-8	5.171034E-2
3.620000E-8	5.141055E-2
3.630000E-8	4.900362E-2
3.640000E-8	4.484932E-2
3.650000E-8	3.937592E-2
3.660000E-8	3.347424E-2
3.670000E-8	2.779527E-2
3.680000E-8	2.370093E-2
3.690000E-8	2.119121E-2
3.700000E-8	2.060876E-2
3.710000E-8	2.201351E-2
3.720000E-8	2.500289E-2
3.730000E-8	2.892592E-2
3.740000E-8	3.348281E-2
3.750000E-8	3.798830E-2
3.760000E-8	4.209977E-2
3.770000E-8	4.571444E-2
3.780000E-8	4.840403E-2
3.790000E-8	4.962891E-2
3.800000E-8	4.929485E-2
3.810000E-8	4.718772E-2
3.820000E-8	4.334178E-2
3.830000E-8	3.809965E-2
3.840000E-8	3.210375E-2
3.850000E-8	2.637338E-2
3.860000E-8	2.177367E-2
3.870000E-8	1.921257E-2
3.880000E-8	1.851019E-2
3.890000E-8	1.983785E-2
3.900000E-8	2.277584E-2
3.910000E-8	2.673314E-2
3.920000E-8	3.115297E-2
3.930000E-8	3.561563E-2
3.940000E-8	3.941018E-2
3.950000E-8	4.249379E-2
3.960000E-8	4.480649E-2
3.970000E-8	4.602280E-2
3.980000E-8	4.604850E-2
3.990000E-8	4.482362E-2
4.000000E-8	4.205694E-2
4.010000E-8	3.792834E-2
4.020000E-8	3.320871E-2
4.030000E-8	2.814646E-2
4.040000E-8	2.366666E-2
4.050000E-8	2.010339E-2
4.060000E-8	1.833888E-2
4.070000E-8	1.803052E-2
4.080000E-8	1.958945E-2
4.090000E-8	2.217625E-2
4.100000E-8	2.573953E-2
4.110000E-8	2.972252E-2
4.120000E-8	3.377404E-2
4.130000E-8	3.737158E-2
4.140000E-8	4.010399E-2
4.150000E-8	4.188563E-2
4.160000E-8	4.261371E-2
4.170000E-8	4.214260E-2
4.180000E-8	4.080637E-2
4.190000E-8	3.835662E-2
4.200000E-8	3.521305E-2
4.210000E-8	3.140994E-2
4.220000E-8	2.728133E-2
4.230000E-8	2.295572E-2
4.240000E-8	1.970937E-2
4.250000E-8	1.725105E-2
4.260000E-8	1.658294E-2
4.270000E-8	1.721679E-2
4.280000E-8	1.962371E-2
4.290000E-8	2.313560E-2
4.300000E-8	2.722994E-2
4.310000E-8	3.196670E-2
4.320000E-8	3.612100E-2
4.330000E-8	3.924744E-2
4.340000E-8	4.121752E-2
4.350000E-8	4.187707E-2
4.360000E-8	4.091772E-2
4.370000E-8	3.870781E-2
4.380000E-8	3.561563E-2
4.390000E-8	3.183822E-2
4.400000E-8	2.790662E-2
4.410000E-8	2.364097E-2
4.420000E-8	2.009482E-2
4.430000E-8	1.731958E-2
4.440000E-8	1.588913E-2
4.450000E-8	1.583773E-2
4.460000E-8	1.732814E-2
4.470000E-8	2.012052E-2
4.480000E-8	2.355531E-2
4.490000E-8	2.781240E-2
4.500000E-8	3.206949E-2
4.510000E-8	3.608674E-2
4.520000E-8	3.922174E-2
4.530000E-8	4.109760E-2
4.540000E-8	4.119182E-2
4.550000E-8	3.950440E-2
4.560000E-8	3.615527E-2
4.570000E-8	3.170117E-2
4.580000E-8	2.679310E-2
4.590000E-8	2.241609E-2
4.600000E-8	1.912691E-2
4.610000E-8	1.677995E-2
4.620000E-8	1.565786E-2
4.630000E-8	1.575208E-2
4.640000E-8	1.713970E-2
4.650000E-8	1.923826E-2
4.660000E-8	2.200494E-2
4.670000E-8	2.486584E-2
4.680000E-8	2.779527E-2
4.690000E-8	3.039920E-2
4.700000E-8	3.253203E-2
4.710000E-8	3.390252E-2
4.720000E-8	3.453637E-2
4.730000E-8	3.455350E-2
4.740000E-8	3.355990E-2
4.750000E-8	3.172687E-2
4.760000E-8	2.916576E-2
4.770000E-8	2.612498E-2
4.780000E-8	2.294716E-2
4.790000E-8	1.998347E-2
4.800000E-8	1.749945E-2
4.810000E-8	1.574351E-2
4.820000E-8	1.513536E-2
4.830000E-8	1.539232E-2
4.840000E-8	1.662577E-2
4.850000E-8	1.871576E-2
4.860000E-8	2.125117E-2
4.870000E-8	2.408638E-2
4.880000E-8	2.700724E-2
4.890000E-8	2.979105E-2
4.900000E-8	3.213801E-2
4.910000E-8	3.340572E-2
4.920000E-8	3.379117E-2
4.930000E-8	3.270334E-2
4.940000E-8	3.060478E-2
4.950000E-8	2.787236E-2
4.960000E-8	2.474593E-2
4.970000E-8	2.147388E-2
4.980000E-8	1.876716E-2
4.990000E-8	1.644589E-2
5.000000E-8	1.491265E-2
5.010000E-8	1.405609E-2
5.020000E-8	1.409036E-2
5.030000E-8	1.500687E-2
5.040000E-8	1.696839E-2
5.050000E-8	1.957232E-2
5.060000E-8	2.261310E-2
5.070000E-8	2.602220E-2
5.080000E-8	2.918289E-2
5.090000E-8	3.159838E-2
5.100000E-8	3.323441E-2
5.110000E-8	3.349137E-2
5.120000E-8	3.232646E-2
5.130000E-8	2.973109E-2
5.140000E-8	2.665605E-2
5.150000E-8	2.283580E-2
5.160000E-8	1.954662E-2
5.170000E-8	1.679708E-2
5.180000E-8	1.483556E-2
5.190000E-8	1.394474E-2
5.200000E-8	1.392761E-2
5.210000E-8	1.469851E-2
5.220000E-8	1.603474E-2
5.230000E-8	1.795343E-2
5.240000E-8	2.026613E-2
5.250000E-8	2.254457E-2
5.260000E-8	2.492580E-2
5.270000E-8	2.654470E-2
5.280000E-8	2.780383E-2
5.290000E-8	2.835203E-2
5.300000E-8	2.838629E-2
5.310000E-8	2.762396E-2
5.320000E-8	2.659609E-2
5.330000E-8	2.479732E-2
5.340000E-8	2.259597E-2
5.350000E-8	1.982072E-2
5.360000E-8	1.700265E-2
5.370000E-8	1.443298E-2
5.380000E-8	1.291687E-2
5.390000E-8	1.197466E-2
5.400000E-8	1.230872E-2
5.410000E-8	1.340511E-2
5.420000E-8	1.515249E-2
5.430000E-8	1.718253E-2
5.440000E-8	1.931535E-2
5.450000E-8	2.143105E-2
5.460000E-8	2.400072E-2
5.470000E-8	2.570527E-2
5.480000E-8	2.716142E-2
5.490000E-8	2.763252E-2
5.500000E-8	2.697297E-2
5.510000E-8	2.501146E-2
5.520000E-8	2.227048E-2
5.530000E-8	1.917831E-2
5.540000E-8	1.608613E-2
5.550000E-8	1.345650E-2
5.560000E-8	1.151212E-2
5.570000E-8	1.045855E-2
5.580000E-8	1.029581E-2
5.590000E-8	1.078405E-2
5.600000E-8	1.223163E-2
5.610000E-8	1.412462E-2
5.620000E-8	1.694269E-2
5.630000E-8	1.977790E-2
5.640000E-8	2.285293E-2
5.650000E-8	2.550826E-2
5.660000E-8	2.722994E-2
5.670000E-8	2.794088E-2
5.680000E-8	2.764109E-2
5.690000E-8	2.630486E-2
5.700000E-8	2.430908E-2
5.710000E-8	2.150814E-2
5.720000E-8	1.832175E-2
5.730000E-8	1.469851E-2
5.740000E-8	1.164917E-2
5.750000E-8	9.173719E-3
5.760000E-8	7.991670E-3
5.770000E-8	8.103023E-3
5.780000E-8	9.876096E-3
5.790000E-8	1.250573E-2
5.800000E-8	1.565786E-2
5.810000E-8	1.885281E-2
5.820000E-8	2.195355E-2
5.830000E-8	2.424056E-2
5.840000E-8	2.578236E-2
5.850000E-8	2.654470E-2
5.860000E-8	2.627916E-2
5.870000E-8	2.517420E-2
5.880000E-8	2.316986E-2
5.890000E-8	2.068585E-2
5.900000E-8	1.804765E-2
5.910000E-8	1.557220E-2
5.920000E-8	1.384195E-2
5.930000E-8	1.201749E-2
5.940000E-8	1.083544E-2
5.950000E-8	9.858965E-3
5.960000E-8	9.550604E-3
5.970000E-8	1.004741E-2
5.980000E-8	1.153782E-2
5.990000E-8	1.352503E-2
6.000000E-8	1.643732E-2
6.010000E-8	1.910978E-2
6.020000E-8	2.155097E-2
6.030000E-8	2.322125E-2
6.040000E-8	2.421486E-2
6.050000E-8	2.417203E-2
6.060000E-8	2.367523E-2
6.070000E-8	2.237326E-2
6.080000E-8	2.029183E-2
6.090000E-8	1.781638E-2
6.100000E-8	1.513536E-2
6.110000E-8	1.224019E-2
6.120000E-8	1.003028E-2
6.130000E-8	8.231506E-3
6.140000E-8	7.674744E-3
6.150000E-8	8.017367E-3
6.160000E-8	9.293637E-3
6.170000E-8	1.142646E-2
6.180000E-8	1.414175E-2
6.190000E-8	1.688273E-2
6.200000E-8	1.949523E-2
6.210000E-8	2.156810E-2
6.220000E-8	2.274158E-2
6.230000E-8	2.308421E-2
6.240000E-8	2.263880E-2
6.250000E-8	2.158523E-2
6.260000E-8	1.970080E-2
6.270000E-8	1.728531E-2
6.280000E-8	1.461286E-2
6.290000E-8	1.181191E-2
6.300000E-8	9.345031E-3
6.310000E-8	7.571958E-3
6.320000E-8	6.852450E-3
6.330000E-8	7.058023E-3
6.340000E-8	8.137285E-3
6.350000E-8	9.576301E-3
6.360000E-8	1.177765E-2
6.370000E-8	1.406466E-2
6.380000E-8	1.647158E-2
6.390000E-8	1.849306E-2
6.400000E-8	2.026613E-2
6.410000E-8	2.142248E-2
6.420000E-8	2.194498E-2
6.430000E-8	2.132826E-2
6.440000E-8	2.001773E-2
6.450000E-8	1.783351E-2
6.460000E-8	1.527241E-2
6.470000E-8	1.275413E-2
6.480000E-8	1.051851E-2
6.490000E-8	8.616957E-3
6.500000E-8	7.760400E-3
6.510000E-8	7.537695E-3
6.520000E-8	7.923146E-3
6.530000E-8	8.736875E-3
6.540000E-8	1.021872E-2
6.550000E-8	1.189757E-2
6.560000E-8	1.386765E-2
6.570000E-8	1.582060E-2
6.580000E-8	1.742236E-2
6.590000E-8	1.851019E-2
6.600000E-8	1.898986E-2
6.610000E-8	1.881855E-2
6.620000E-8	1.800482E-2
6.630000E-8	1.689130E-2
6.640000E-8	1.576064E-2
6.650000E-8	1.454433E-2
6.660000E-8	1.326806E-2
6.670000E-8	1.189757E-2
6.680000E-8	1.077548E-2
6.690000E-8	9.473514E-3
6.700000E-8	8.668351E-3
6.710000E-8	8.197244E-3
6.720000E-8	8.608392E-3
6.730000E-8	9.379293E-3
6.740000E-8	1.110954E-2
6.750000E-8	1.296827E-2
6.760000E-8	1.504113E-2
6.770000E-8	1.698552E-2
6.780000E-8	1.863011E-2
6.790000E-8	1.958089E-2
6.800000E-8	1.977790E-2
6.810000E-8	1.902412E-2
6.820000E-8	1.745663E-2
6.830000E-8	1.513536E-2
6.840000E-8	1.293400E-2
6.850000E-8	1.058704E-2
6.860000E-8	8.839662E-3
6.870000E-8	7.357818E-3
6.880000E-8	6.801056E-3
6.890000E-8	6.338515E-3
6.900000E-8	6.552655E-3
6.910000E-8	7.126548E-3
6.920000E-8	8.428515E-3
6.930000E-8	1.012450E-2
6.940000E-8	1.218023E-2
6.950000E-8	1.379913E-2
6.960000E-8	1.513536E-2
6.970000E-8	1.617179E-2
6.980000E-8	1.688273E-2
6.990000E-8	1.701122E-2
7.000000E-8	1.669429E-2
7.010000E-8	1.588056E-2
7.020000E-8	1.481843E-2
7.030000E-8	1.311388E-2
7.040000E-8	1.117806E-2
7.050000E-8	9.182285E-3
7.060000E-8	8.051629E-3
7.070000E-8	7.323556E-3
7.080000E-8	7.503433E-3
7.090000E-8	8.162982E-3
7.100000E-8	9.036670E-3
7.110000E-8	9.636260E-3
7.120000E-8	1.073265E-2
7.130000E-8	1.170056E-2
7.140000E-8	1.288261E-2
7.150000E-8	1.411605E-2
7.160000E-8	1.502400E-2
7.170000E-8	1.558077E-2
7.180000E-8	1.576064E-2
7.190000E-8	1.522101E-2
7.200000E-8	1.468995E-2
7.210000E-8	1.355929E-2
7.220000E-8	1.242864E-2
7.230000E-8	1.104958E-2
7.240000E-8	9.978883E-3
7.250000E-8	9.070932E-3
7.260000E-8	8.728310E-3
7.270000E-8	8.171547E-3
7.280000E-8	7.923146E-3
7.290000E-8	7.940277E-3
7.300000E-8	8.205810E-3
7.310000E-8	8.788268E-3
7.320000E-8	9.953186E-3
7.330000E-8	1.117806E-2
7.340000E-8	1.259995E-2
7.350000E-8	1.390191E-2
7.360000E-8	1.452720E-2
7.370000E-8	1.488695E-2
7.380000E-8	1.451007E-2
7.390000E-8	1.358499E-2
7.400000E-8	1.228302E-2
7.410000E-8	1.066413E-2
7.420000E-8	9.404990E-3
7.430000E-8	8.025933E-3
7.440000E-8	6.604048E-3
7.450000E-8	5.430565E-3
7.460000E-8	4.693926E-3
7.470000E-8	4.522615E-3
7.480000E-8	4.959459E-3
7.490000E-8	6.132942E-3
7.500000E-8	8.008802E-3
7.510000E-8	1.031294E-2
7.520000E-8	1.257425E-2
7.530000E-8	1.399614E-2
7.540000E-8	1.498118E-2
7.550000E-8	1.494691E-2
7.560000E-8	1.445868E-2
7.570000E-8	1.342224E-2
7.580000E-8	1.225732E-2
7.590000E-8	1.105814E-2
7.600000E-8	9.824702E-3
7.610000E-8	8.454211E-3
7.620000E-8	7.246466E-3
7.630000E-8	6.398474E-3
7.640000E-8	5.730360E-3
7.650000E-8	5.747491E-3
7.660000E-8	6.295688E-3
7.670000E-8	6.895277E-3
7.680000E-8	8.145851E-3
7.690000E-8	9.182285E-3
7.700000E-8	1.039860E-2
7.710000E-8	1.170056E-2
7.720000E-8	1.288261E-2
7.730000E-8	1.344794E-2
7.740000E-8	1.383339E-2
7.750000E-8	1.333659E-2
7.760000E-8	1.232585E-2
7.770000E-8	1.102388E-2
7.780000E-8	9.636260E-3
7.790000E-8	8.317162E-3
7.800000E-8	7.374949E-3
7.810000E-8	6.612614E-3
7.820000E-8	6.115811E-3
7.830000E-8	5.490524E-3
7.840000E-8	5.370606E-3
7.850000E-8	5.584745E-3
7.860000E-8	6.432737E-3
7.870000E-8	7.768966E-3
7.880000E-8	9.285072E-3
7.890000E-8	1.080118E-2
7.900000E-8	1.231728E-2
7.910000E-8	1.319097E-2
7.920000E-8	1.345650E-2
7.930000E-8	1.357642E-2
7.940000E-8	1.314814E-2
7.950000E-8	1.258282E-2
7.960000E-8	1.153782E-2
7.970000E-8	1.016733E-2
7.980000E-8	8.702613E-3
7.990000E-8	7.143679E-3
8.000000E-8	5.893106E-3
8.010000E-8	5.105073E-3
8.020000E-8	5.096508E-3
8.030000E-8	5.404868E-3
8.040000E-8	6.167204E-3
8.050000E-8	7.126548E-3
8.060000E-8	8.351424E-3
8.070000E-8	9.336465E-3
8.080000E-8	1.013306E-2
8.090000E-8	1.104958E-2
8.100000E-8	1.192327E-2
8.110000E-8	1.225732E-2
8.120000E-8	1.251429E-2
8.130000E-8	1.230872E-2
8.140000E-8	1.163204E-2
8.150000E-8	1.048425E-2
8.160000E-8	9.182285E-3
8.170000E-8	7.580523E-3
8.180000E-8	6.355647E-3
8.190000E-8	5.310647E-3
8.200000E-8	4.873803E-3
8.210000E-8	4.848106E-3
8.220000E-8	5.173598E-3
8.230000E-8	5.696098E-3
8.240000E-8	6.329950E-3
8.250000E-8	7.066589E-3
8.260000E-8	8.025933E-3
8.270000E-8	8.985277E-3
8.280000E-8	1.021872E-2
8.290000E-8	1.098105E-2
8.300000E-8	1.134937E-2
8.310000E-8	1.116950E-2
8.320000E-8	1.066413E-2
8.330000E-8	9.507776E-3
8.340000E-8	8.205810E-3
8.350000E-8	7.083720E-3
8.360000E-8	6.458433E-3
8.370000E-8	5.884540E-3
8.380000E-8	6.115811E-3
8.390000E-8	6.261425E-3
8.400000E-8	6.689704E-3
8.410000E-8	6.929540E-3
8.420000E-8	7.434908E-3
8.430000E-8	7.751835E-3
8.440000E-8	8.325728E-3
8.450000E-8	8.642654E-3
8.460000E-8	9.302203E-3
8.470000E-8	9.816137E-3
8.480000E-8	1.009024E-2
8.490000E-8	1.020159E-2
8.500000E-8	1.013306E-2
8.510000E-8	9.781875E-3
8.520000E-8	9.542039E-3
8.530000E-8	8.959580E-3
8.540000E-8	8.642654E-3
8.550000E-8	7.906015E-3
8.560000E-8	7.135113E-3
8.570000E-8	6.090114E-3
8.580000E-8	5.490524E-3
8.590000E-8	5.139336E-3
8.600000E-8	5.190729E-3
8.610000E-8	5.610442E-3
8.620000E-8	6.184335E-3
8.630000E-8	6.518392E-3
8.640000E-8	6.878146E-3
8.650000E-8	7.263597E-3
8.660000E-8	7.863187E-3
8.670000E-8	8.462777E-3
8.680000E-8	9.165154E-3
8.690000E-8	9.207981E-3
8.700000E-8	9.173719E-3
8.710000E-8	8.317162E-3
8.720000E-8	7.452040E-3
8.730000E-8	6.210032E-3
8.740000E-8	5.396303E-3
8.750000E-8	4.642533E-3
8.760000E-8	4.197123E-3
8.770000E-8	3.785976E-3
8.780000E-8	3.905893E-3
8.790000E-8	3.965852E-3
8.800000E-8	4.942327E-3
8.810000E-8	6.132942E-3
8.820000E-8	7.409212E-3
8.830000E-8	8.574129E-3
8.840000E-8	9.464949E-3
8.850000E-8	9.430686E-3
8.860000E-8	9.250809E-3
8.870000E-8	8.651219E-3
8.880000E-8	8.060195E-3
8.890000E-8	7.332122E-3
8.900000E-8	6.801056E-3
8.910000E-8	6.218597E-3
8.920000E-8	5.644704E-3
8.930000E-8	5.165032E-3
8.940000E-8	5.036549E-3
8.950000E-8	4.745319E-3
8.960000E-8	4.711057E-3
8.970000E-8	4.479787E-3
8.980000E-8	4.890934E-3
8.990000E-8	5.207860E-3
9.000000E-8	5.781753E-3
9.010000E-8	6.252860E-3
9.020000E-8	6.672573E-3
9.030000E-8	7.049458E-3
9.040000E-8	7.272163E-3
9.050000E-8	7.443474E-3
9.060000E-8	7.589089E-3
9.070000E-8	7.443474E-3
9.080000E-8	7.297859E-3
9.090000E-8	6.963802E-3
9.100000E-8	6.664007E-3
9.110000E-8	6.269991E-3
9.120000E-8	6.218597E-3
9.130000E-8	5.953065E-3
9.140000E-8	5.721794E-3
9.150000E-8	5.336344E-3
9.160000E-8	5.053680E-3
9.170000E-8	4.693926E-3
9.180000E-8	4.796713E-3
9.190000E-8	4.959459E-3
9.200000E-8	5.430565E-3
9.210000E-8	5.944499E-3
9.220000E-8	6.407040E-3
9.230000E-8	6.963802E-3
9.240000E-8	7.075154E-3
9.250000E-8	7.255031E-3
9.260000E-8	7.049458E-3
9.270000E-8	6.458433E-3
9.280000E-8	5.970196E-3
9.290000E-8	5.336344E-3
9.300000E-8	4.856672E-3
9.310000E-8	4.642533E-3
9.320000E-8	4.574008E-3
9.330000E-8	4.317041E-3
9.340000E-8	4.128598E-3
9.350000E-8	3.897328E-3
9.360000E-8	3.923025E-3
9.370000E-8	4.205688E-3
9.380000E-8	4.693926E-3
9.390000E-8	5.139336E-3
9.400000E-8	5.781753E-3
9.410000E-8	6.278556E-3
9.420000E-8	6.758228E-3
9.430000E-8	6.912409E-3
9.440000E-8	6.946671E-3
9.450000E-8	6.629745E-3
9.460000E-8	6.055852E-3
9.470000E-8	5.610442E-3
9.480000E-8	5.387737E-3
9.490000E-8	5.096508E-3
9.500000E-8	5.199295E-3
9.510000E-8	5.293516E-3
9.520000E-8	5.156467E-3
9.530000E-8	4.693926E-3
9.540000E-8	4.385565E-3
9.550000E-8	4.479787E-3
9.560000E-8	4.865237E-3
9.570000E-8	5.379172E-3
9.580000E-8	5.995893E-3
9.590000E-8	6.244294E-3
9.600000E-8	6.441302E-3
9.610000E-8	6.389909E-3
9.620000E-8	6.329950E-3
9.630000E-8	6.090114E-3
9.640000E-8	6.210032E-3
9.650000E-8	6.329950E-3
9.660000E-8	6.449868E-3
9.670000E-8	6.210032E-3
9.680000E-8	5.901671E-3
9.690000E-8	5.224991E-3
9.700000E-8	4.625401E-3
9.710000E-8	3.931590E-3
9.720000E-8	3.640361E-3
9.730000E-8	3.691754E-3
9.740000E-8	3.931590E-3
9.750000E-8	4.359869E-3
9.760000E-8	4.805278E-3
9.770000E-8	4.933762E-3
9.780000E-8	5.122204E-3
9.790000E-8	5.293516E-3
9.800000E-8	5.824581E-3
9.810000E-8	6.124376E-3
9.820000E-8	6.347081E-3
9.830000E-8	6.030155E-3
9.840000E-8	5.541917E-3
9.850000E-8	4.162861E-3
9.860000E-8	3.143558E-3
9.870000E-8	2.346960E-3
9.880000E-8	2.184214E-3
9.890000E-8	2.261304E-3
9.900000E-8	2.792369E-3
9.910000E-8	3.460484E-3
9.920000E-8	4.068639E-3
9.930000E-8	4.222820E-3
9.940000E-8	4.111467E-3
9.950000E-8	3.923025E-3
9.960000E-8	3.905893E-3
9.970000E-8	3.905893E-3
9.980000E-8	4.265647E-3
9.990000E-8	4.488352E-3
1.000000E-7	4.753885E-3
1.001000E-7	4.813844E-3
1.002000E-7	4.839541E-3
1.003000E-7	4.890934E-3
1.004000E-7	4.796713E-3
1.005000E-7	4.685360E-3
1.006000E-7	4.651098E-3
1.007000E-7	4.462656E-3
1.008000E-7	4.317041E-3
1.009000E-7	4.017246E-3
1.010000E-7	3.897328E-3
1.011000E-7	3.691754E-3
1.012000E-7	4.085770E-3
1.013000E-7	4.548311E-3
1.014000E-7	5.027983E-3
1.015000E-7	5.276385E-3
1.016000E-7	5.344909E-3
1.017000E-7	5.284950E-3
1.018000E-7	5.105073E-3
1.019000E-7	5.105073E-3
1.020000E-7	5.550483E-3
1.021000E-7	5.944499E-3
1.022000E-7	6.355647E-3
1.023000E-7	6.381343E-3
1.024000E-7	6.115811E-3
1.025000E-7	5.404868E-3
1.026000E-7	4.745319E-3
1.027000E-7	4.137164E-3
1.028000E-7	3.871631E-3
1.029000E-7	3.785976E-3
1.030000E-7	3.863066E-3
1.031000E-7	4.102902E-3
1.032000E-7	4.436959E-3
1.033000E-7	4.591139E-3
1.034000E-7	4.753885E-3
1.035000E-7	4.599705E-3
1.036000E-7	4.419828E-3
1.037000E-7	4.351303E-3
1.038000E-7	4.214254E-3
1.039000E-7	4.368434E-3
1.040000E-7	4.711057E-3
1.041000E-7	4.788147E-3
1.042000E-7	4.728188E-3
1.043000E-7	4.359869E-3
1.044000E-7	3.751713E-3
1.045000E-7	2.980812E-3
1.046000E-7	2.646755E-3
1.047000E-7	2.526837E-3
1.048000E-7	2.749542E-3
1.049000E-7	3.323435E-3
1.050000E-7	4.051508E-3
1.051000E-7	4.488352E-3
1.052000E-7	4.873803E-3
1.053000E-7	4.959459E-3
1.054000E-7	5.130770E-3
1.055000E-7	5.302081E-3
1.056000E-7	5.601876E-3
1.057000E-7	5.507655E-3
1.058000E-7	5.302081E-3
1.059000E-7	4.531180E-3
1.060000E-7	3.623230E-3
1.061000E-7	2.715279E-3
1.062000E-7	2.269870E-3
1.063000E-7	2.021468E-3
1.064000E-7	2.132820E-3
1.065000E-7	2.484009E-3
1.066000E-7	2.723845E-3
1.067000E-7	2.638189E-3
1.068000E-7	2.655320E-3
1.069000E-7	2.792369E-3
1.070000E-7	3.314869E-3
1.071000E-7	3.931590E-3
1.072000E-7	4.916631E-3
1.073000E-7	5.678967E-3
1.074000E-7	5.790319E-3
1.075000E-7	5.396303E-3
1.076000E-7	4.582574E-3
1.077000E-7	3.571836E-3
1.078000E-7	2.809501E-3
1.079000E-7	2.209911E-3
1.080000E-7	1.987206E-3
1.081000E-7	1.952944E-3
1.082000E-7	1.867288E-3
1.083000E-7	1.773067E-3
1.084000E-7	1.850157E-3
1.085000E-7	2.064296E-3
1.086000E-7	2.766673E-3
1.087000E-7	3.160689E-3
1.088000E-7	3.837369E-3
1.089000E-7	4.137164E-3
1.090000E-7	4.488352E-3
1.091000E-7	4.342738E-3
1.092000E-7	4.291344E-3
1.093000E-7	4.359869E-3
1.094000E-7	4.394131E-3
1.095000E-7	4.068639E-3
1.096000E-7	3.717451E-3
1.097000E-7	3.220648E-3
1.098000E-7	3.186386E-3
1.099000E-7	2.912287E-3
1.100000E-7	3.212082E-3
1.101000E-7	3.237779E-3
1.102000E-7	3.648926E-3
1.103000E-7	3.743148E-3
1.104000E-7	3.905893E-3
1.105000E-7	3.648926E-3
1.106000E-7	3.614664E-3
1.107000E-7	3.203517E-3
1.108000E-7	3.332000E-3
1.109000E-7	3.340566E-3
1.110000E-7	3.982984E-3
1.111000E-7	4.274213E-3
1.112000E-7	4.522615E-3
1.113000E-7	4.214254E-3
1.114000E-7	3.905893E-3
1.115000E-7	3.340566E-3
1.116000E-7	3.015074E-3
1.117000E-7	2.715279E-3
1.118000E-7	2.578230E-3
1.119000E-7	2.663886E-3
1.120000E-7	2.466878E-3
1.121000E-7	2.321263E-3
1.122000E-7	2.244173E-3
1.123000E-7	2.312697E-3
1.124000E-7	2.852328E-3
1.125000E-7	3.366263E-3
1.126000E-7	4.077205E-3
1.127000E-7	4.308475E-3
1.128000E-7	4.359869E-3
1.129000E-7	4.085770E-3
1.130000E-7	3.923025E-3
1.131000E-7	3.477615E-3
1.132000E-7	3.100730E-3
1.133000E-7	2.766673E-3
1.134000E-7	2.586796E-3
1.135000E-7	2.552533E-3
1.136000E-7	2.843763E-3
1.137000E-7	3.075033E-3
1.138000E-7	3.366263E-3
1.139000E-7	3.563271E-3
1.140000E-7	3.614664E-3
1.141000E-7	3.691754E-3
1.142000E-7	3.648926E-3
1.143000E-7	3.434787E-3
1.144000E-7	3.417656E-3
1.145000E-7	3.383394E-3
1.146000E-7	3.272041E-3
1.147000E-7	2.903722E-3
1.148000E-7	2.569665E-3
1.149000E-7	2.364091E-3
1.150000E-7	2.124255E-3
1.151000E-7	2.149952E-3
1.152000E-7	2.355525E-3
1.153000E-7	2.526837E-3
1.154000E-7	2.895156E-3
1.155000E-7	3.092164E-3
1.156000E-7	3.263476E-3
1.157000E-7	3.203517E-3
1.158000E-7	2.749542E-3
1.159000E-7	2.304132E-3
1.160000E-7	1.747370E-3
1.161000E-7	1.284829E-3
1.162000E-7	1.207739E-3
1.163000E-7	1.396181E-3
1.164000E-7	1.970075E-3
1.165000E-7	2.321263E-3
1.166000E-7	2.878025E-3
1.167000E-7	3.023640E-3
1.168000E-7	2.886591E-3
1.169000E-7	2.381222E-3
1.170000E-7	2.381222E-3
1.171000E-7	2.458312E-3
1.172000E-7	2.989377E-3
1.173000E-7	3.494746E-3
1.174000E-7	3.897328E-3
1.175000E-7	3.974418E-3
1.176000E-7	3.623230E-3
1.177000E-7	3.040771E-3
1.178000E-7	2.698148E-3
1.179000E-7	2.432615E-3
1.180000E-7	2.706714E-3
1.181000E-7	2.997943E-3
1.182000E-7	3.391959E-3
1.183000E-7	3.451918E-3
1.184000E-7	3.220648E-3
1.185000E-7	2.809501E-3
1.186000E-7	2.406919E-3
1.187000E-7	1.875853E-3
1.188000E-7	1.618886E-3
1.189000E-7	1.661714E-3
1.190000E-7	1.952944E-3
1.191000E-7	2.209911E-3
1.192000E-7	2.535402E-3
1.193000E-7	2.355525E-3
1.194000E-7	2.466878E-3
1.195000E-7	2.509706E-3
1.196000E-7	2.852328E-3
1.197000E-7	3.272041E-3
1.198000E-7	3.648926E-3
1.199000E-7	3.923025E-3
1.200000E-7	3.957287E-3
1.201000E-7	3.845935E-3
1.202000E-7	3.400525E-3
1.203000E-7	3.220648E-3
1.204000E-7	3.075033E-3
1.205000E-7	2.997943E-3
1.206000E-7	2.835197E-3
1.207000E-7	2.424050E-3
1.208000E-7	1.927247E-3
1.209000E-7	1.481837E-3
1.210000E-7	1.464706E-3
1.211000E-7	1.618886E-3
1.212000E-7	2.107124E-3
1.213000E-7	2.638189E-3
1.214000E-7	3.117861E-3
1.215000E-7	3.092164E-3
1.216000E-7	2.800935E-3
1.217000E-7	2.475443E-3
1.218000E-7	2.398353E-3
1.219000E-7	2.261304E-3
1.220000E-7	2.638189E-3
1.221000E-7	2.672451E-3
1.222000E-7	2.878025E-3
1.223000E-7	3.057902E-3
1.224000E-7	3.366263E-3
1.225000E-7	3.546140E-3
1.226000E-7	3.743148E-3
1.227000E-7	3.520443E-3
1.228000E-7	3.143558E-3
1.229000E-7	2.663886E-3
1.230000E-7	2.424050E-3
1.231000E-7	1.978640E-3
1.232000E-7	2.021468E-3
1.233000E-7	2.012902E-3
1.234000E-7	2.295566E-3
1.235000E-7	2.501140E-3
1.236000E-7	2.655320E-3
1.237000E-7	2.672451E-3
1.238000E-7	2.629624E-3
1.239000E-7	2.364091E-3
1.240000E-7	2.089993E-3
1.241000E-7	1.867288E-3
1.242000E-7	1.807329E-3
1.243000E-7	1.858722E-3
1.244000E-7	2.021468E-3
1.245000E-7	1.867288E-3
1.246000E-7	1.884419E-3
1.247000E-7	1.747370E-3
1.248000E-7	1.524665E-3
1.249000E-7	1.070690E-3
1.250000E-7	9.336407E-4
1.251000E-7	1.010731E-3
1.252000E-7	1.627452E-3
1.253000E-7	1.961509E-3
1.254000E-7	2.441181E-3
1.255000E-7	2.364091E-3
1.256000E-7	2.269870E-3
1.257000E-7	1.833026E-3
1.258000E-7	1.541796E-3
1.259000E-7	1.233436E-3
1.260000E-7	1.267698E-3
1.261000E-7	1.447575E-3
1.262000E-7	1.533231E-3
1.263000E-7	1.439009E-3
1.264000E-7	1.344788E-3
1.265000E-7	1.122083E-3
1.266000E-7	1.353354E-3
1.267000E-7	1.618886E-3
1.268000E-7	2.227042E-3
1.269000E-7	2.569665E-3
1.270000E-7	3.006509E-3
1.271000E-7	3.177820E-3
1.272000E-7	3.015074E-3
1.273000E-7	2.501140E-3
1.274000E-7	2.278435E-3
1.275000E-7	2.089993E-3
1.276000E-7	2.338394E-3
1.277000E-7	2.903722E-3
1.278000E-7	3.443353E-3
1.279000E-7	3.683189E-3
1.280000E-7	3.751713E-3
1.281000E-7	3.254910E-3
1.282000E-7	2.886591E-3
1.283000E-7	2.389788E-3
1.284000E-7	2.072861E-3
1.285000E-7	2.209911E-3
1.286000E-7	2.638189E-3
1.287000E-7	3.049336E-3
1.288000E-7	3.434787E-3
1.289000E-7	3.477615E-3
1.290000E-7	3.314869E-3
1.291000E-7	2.843763E-3
1.292000E-7	2.295566E-3
1.293000E-7	2.021468E-3
1.294000E-7	1.824460E-3
1.295000E-7	1.558927E-3
1.296000E-7	1.636017E-3
1.297000E-7	1.841591E-3
1.298000E-7	2.047165E-3
1.299000E-7	2.261304E-3
1.300000E-7	2.655320E-3
1.301000E-7	2.715279E-3
1.302000E-7	2.389788E-3
1.303000E-7	2.047165E-3
1.304000E-7	1.473272E-3
1.305000E-7	8.908128E-4
1.306000E-7	5.738867E-4
1.307000E-7	6.081490E-4
1.308000E-7	8.565505E-4
1.309000E-7	1.147780E-3
1.310000E-7	1.704542E-3
1.311000E-7	1.764501E-3
1.312000E-7	1.576058E-3
1.313000E-7	1.319091E-3
1.314000E-7	1.156345E-3
1.315000E-7	1.164911E-3
1.316000E-7	1.541796E-3
1.317000E-7	2.021468E-3
1.318000E-7	2.681017E-3
1.319000E-7	2.903722E-3
1.320000E-7	3.117861E-3
1.321000E-7	3.023640E-3
1.322000E-7	3.023640E-3
1.323000E-7	2.835197E-3
1.324000E-7	2.818066E-3
1.325000E-7	2.843763E-3
1.326000E-7	2.937984E-3
1.327000E-7	2.758107E-3
1.328000E-7	2.552533E-3
1.329000E-7	2.304132E-3
1.330000E-7	2.261304E-3
1.331000E-7	2.089993E-3
1.332000E-7	2.158517E-3
1.333000E-7	2.235607E-3
1.334000E-7	2.329829E-3
1.335000E-7	2.312697E-3
1.336000E-7	2.415484E-3
1.337000E-7	2.338394E-3
1.338000E-7	2.441181E-3
1.339000E-7	2.441181E-3
1.340000E-7	2.321263E-3
1.341000E-7	2.364091E-3
1.342000E-7	2.218476E-3
1.343000E-7	1.918681E-3
1.344000E-7	1.627452E-3
1.345000E-7	1.396181E-3
1.346000E-7	1.593190E-3
1.347000E-7	1.636017E-3
1.348000E-7	1.918681E-3
1.349000E-7	2.244173E-3
1.350000E-7	2.287001E-3
1.351000E-7	2.012902E-3
1.352000E-7	1.901550E-3
1.353000E-7	1.481837E-3
1.354000E-7	1.481837E-3
1.355000E-7	1.447575E-3
1.356000E-7	1.790198E-3
1.357000E-7	1.704542E-3
1.358000E-7	1.713108E-3
1.359000E-7	1.798763E-3
1.360000E-7	1.884419E-3
1.361000E-7	1.833026E-3
1.362000E-7	1.781632E-3
1.363000E-7	1.593190E-3
1.364000E-7	1.576058E-3
1.365000E-7	1.404747E-3
1.366000E-7	1.507534E-3
1.367000E-7	1.541796E-3
1.368000E-7	1.576058E-3
1.369000E-7	1.687411E-3
1.370000E-7	1.721673E-3
1.371000E-7	1.704542E-3
1.372000E-7	1.807329E-3
1.373000E-7	1.721673E-3
1.374000E-7	1.815894E-3
1.375000E-7	1.670280E-3
1.376000E-7	1.644583E-3
1.377000E-7	1.182042E-3
1.378000E-7	7.537637E-4
1.379000E-7	4.282720E-4
1.380000E-7	1.884360E-4
1.381000E-7	9.421477E-5
1.382000E-7	3.597474E-4
1.383000E-7	4.625343E-4
1.384000E-7	9.079439E-4
1.385000E-7	1.413313E-3
1.386000E-7	2.055730E-3
1.387000E-7	2.149952E-3
1.388000E-7	2.346960E-3
1.389000E-7	2.201345E-3
1.390000E-7	2.415484E-3
1.391000E-7	2.252738E-3
1.392000E-7	2.501140E-3
1.393000E-7	2.424050E-3
1.394000E-7	2.141386E-3
1.395000E-7	1.541796E-3
1.396000E-7	1.250567E-3
1.397000E-7	1.010731E-3
1.398000E-7	8.565505E-4
1.399000E-7	1.010731E-3
1.400000E-7	1.062124E-3
1.401000E-7	1.301960E-3
1.402000E-7	9.935996E-4
1.403000E-7	6.766735E-4
1.404000E-7	5.567556E-4
1.405000E-7	2.569606E-4
1.406000E-7	5.396244E-4
1.407000E-7	8.308538E-4
1.408000E-7	1.687411E-3
1.409000E-7	2.167083E-3
1.410000E-7	2.723845E-3
1.411000E-7	2.766673E-3
1.412000E-7	2.963681E-3
1.413000E-7	2.621058E-3
1.414000E-7	2.321263E-3
1.415000E-7	1.978640E-3
1.416000E-7	1.653149E-3
1.417000E-7	1.584624E-3
1.418000E-7	1.704542E-3
1.419000E-7	1.713108E-3
1.420000E-7	1.850157E-3
1.421000E-7	1.678845E-3
1.422000E-7	1.618886E-3
1.423000E-7	1.447575E-3
1.424000E-7	1.199173E-3
1.425000E-7	9.935996E-4
1.426000E-7	9.764685E-4
1.427000E-7	7.880260E-4
1.428000E-7	7.537637E-4
1.429000E-7	6.252801E-4
1.430000E-7	6.766735E-4
1.431000E-7	6.424113E-4
1.432000E-7	7.965915E-4
1.433000E-7	6.424113E-4
1.434000E-7	6.167146E-4
1.435000E-7	2.569606E-4
1.436000E-7	-1.970146E-4
1.437000E-7	-5.225063E-4
1.438000E-7	-3.254982E-4
1.439000E-7	2.226983E-4
1.440000E-7	1.164911E-3
1.441000E-7	1.738804E-3
1.442000E-7	2.235607E-3
1.443000E-7	2.192779E-3
1.444000E-7	1.978640E-3
1.445000E-7	1.336222E-3
1.446000E-7	1.062124E-3
1.447000E-7	6.424113E-4
1.448000E-7	4.282720E-4
1.449000E-7	1.456082E-4
1.450000E-7	-7.709663E-5
1.451000E-7	-1.798835E-4
1.452000E-7	1.027803E-4
1.453000E-7	2.997885E-4
1.454000E-7	6.509768E-4
1.455000E-7	8.051571E-4
1.456000E-7	8.394194E-4
1.457000E-7	8.308538E-4
1.458000E-7	8.137227E-4
1.459000E-7	5.824523E-4
1.460000E-7	7.880260E-4
1.461000E-7	1.164911E-3
1.462000E-7	1.610321E-3
1.463000E-7	1.892985E-3
1.464000E-7	1.935812E-3
1.465000E-7	1.952944E-3
1.466000E-7	2.132820E-3
1.467000E-7	1.875853E-3
1.468000E-7	1.755935E-3
1.469000E-7	1.533231E-3
1.470000E-7	1.267698E-3
1.471000E-7	1.079255E-3
1.472000E-7	1.104952E-3
1.473000E-7	1.242001E-3
1.474000E-7	1.439009E-3
1.475000E-7	1.481837E-3
1.476000E-7	1.678845E-3
1.477000E-7	1.610321E-3
1.478000E-7	1.593190E-3
1.479000E-7	1.481837E-3
1.480000E-7	1.490403E-3
1.481000E-7	1.387616E-3
1.482000E-7	1.704542E-3
1.483000E-7	1.875853E-3
1.484000E-7	1.858722E-3
1.485000E-7	1.773067E-3
1.486000E-7	1.858722E-3
1.487000E-7	1.644583E-3
1.488000E-7	1.250567E-3
1.489000E-7	9.935996E-4
1.490000E-7	9.165095E-4
1.491000E-7	7.623292E-4
1.492000E-7	8.051571E-4
1.493000E-7	9.764685E-4
1.494000E-7	1.079255E-3
1.495000E-7	1.267698E-3
1.496000E-7	1.610321E-3
1.497000E-7	1.704542E-3
1.498000E-7	2.149952E-3
1.499000E-7	2.227042E-3
1.500000E-7	2.115689E-3
1.501000E-7	1.952944E-3
1.502000E-7	1.721673E-3
1.503000E-7	1.293395E-3
1.504000E-7	7.965915E-4
1.505000E-7	5.567556E-4
1.506000E-7	5.310589E-4
1.507000E-7	7.366325E-4
1.508000E-7	9.593374E-4
1.509000E-7	1.096386E-3
1.510000E-7	1.353354E-3
1.511000E-7	1.327657E-3
1.512000E-7	1.216304E-3
1.513000E-7	1.147780E-3
1.514000E-7	1.276263E-3
1.515000E-7	1.464706E-3
1.516000E-7	1.687411E-3
1.517000E-7	1.815894E-3
1.518000E-7	2.132820E-3
1.519000E-7	2.047165E-3
1.520000E-7	1.704542E-3
1.521000E-7	1.396181E-3
1.522000E-7	1.301960E-3
1.523000E-7	1.190608E-3
1.524000E-7	1.396181E-3
1.525000E-7	1.284829E-3
1.526000E-7	1.190608E-3
1.527000E-7	1.027862E-3
1.528000E-7	8.908128E-4
1.529000E-7	9.764685E-4
1.530000E-7	1.490403E-3
1.531000E-7	1.764501E-3
1.532000E-7	2.064296E-3
1.533000E-7	1.952944E-3
1.534000E-7	1.558927E-3
1.535000E-7	8.565505E-4
1.536000E-7	7.366325E-4
1.537000E-7	5.224933E-4
1.538000E-7	8.993784E-4
1.539000E-7	1.404747E-3
1.540000E-7	1.995771E-3
1.541000E-7	2.227042E-3
1.542000E-7	2.244173E-3
1.543000E-7	1.978640E-3
1.544000E-7	1.678845E-3
1.545000E-7	1.413313E-3
1.546000E-7	1.379050E-3
1.547000E-7	1.224870E-3
1.548000E-7	1.267698E-3
1.549000E-7	1.224870E-3
1.550000E-7	1.301960E-3
1.551000E-7	1.182042E-3
1.552000E-7	1.139214E-3
1.553000E-7	1.139214E-3
1.554000E-7	1.164911E-3
1.555000E-7	1.044993E-3
1.556000E-7	8.565505E-4
1.557000E-7	4.197064E-4
1.558000E-7	1.370426E-4
1.559000E-7	-3.426293E-4
1.560000E-7	-4.282850E-4
1.561000E-7	-2.998015E-4
1.562000E-7	3.768786E-4
1.563000E-7	9.850341E-4
1.564000E-7	1.867288E-3
1.565000E-7	2.355525E-3
1.566000E-7	2.501140E-3
1.567000E-7	2.389788E-3
1.568000E-7	2.389788E-3
1.569000E-7	1.944378E-3
1.570000E-7	1.927247E-3
1.571000E-7	1.790198E-3
1.572000E-7	1.944378E-3
1.573000E-7	1.807329E-3
1.574000E-7	1.738804E-3
1.575000E-7	1.439009E-3
1.576000E-7	9.850341E-4
1.577000E-7	5.824523E-4
1.578000E-7	4.368376E-4
1.579000E-7	5.738867E-4
1.580000E-7	1.130649E-3
1.581000E-7	1.267698E-3
1.582000E-7	1.567493E-3
1.583000E-7	1.344788E-3
1.584000E-7	9.935996E-4
1.585000E-7	2.740917E-4
1.586000E-7	-8.566220E-5
1.587000E-7	-2.484080E-4
1.588000E-7	2.141328E-4
1.589000E-7	7.965915E-4
1.590000E-7	1.421878E-3
1.591000E-7	1.644583E-3
1.592000E-7	1.790198E-3
1.593000E-7	1.884419E-3
1.594000E-7	1.858722E-3
1.595000E-7	1.961509E-3
1.596000E-7	2.295566E-3
1.597000E-7	2.175648E-3
1.598000E-7	2.047165E-3
1.599000E-7	2.004337E-3
1.600000E-7	1.841591E-3
1.601000E-7	1.721673E-3
1.602000E-7	1.618886E-3
1.603000E-7	1.481837E-3
1.604000E-7	1.593190E-3
1.605000E-7	1.738804E-3
1.606000E-7	1.935812E-3
1.607000E-7	1.978640E-3
1.608000E-7	2.141386E-3
1.609000E-7	2.012902E-3
1.610000E-7	1.764501E-3
1.611000E-7	1.413313E-3
1.612000E-7	1.301960E-3
1.613000E-7	1.233436E-3
1.614000E-7	1.507534E-3
1.615000E-7	1.421878E-3
1.616000E-7	1.541796E-3
1.617000E-7	1.242001E-3
1.618000E-7	8.308538E-4
1.619000E-7	5.053621E-4
1.620000E-7	2.826573E-4
1.621000E-7	4.282720E-4
1.622000E-7	6.509768E-4
1.623000E-7	1.259132E-3
1.624000E-7	1.644583E-3
1.625000E-7	1.858722E-3
1.626000E-7	1.927247E-3
1.627000E-7	1.618886E-3
1.628000E-7	1.353354E-3
1.629000E-7	9.850341E-4
1.630000E-7	8.394194E-4
1.631000E-7	6.766735E-4
1.632000E-7	8.137227E-4
1.633000E-7	9.079439E-4
1.634000E-7	1.139214E-3
1.635000E-7	1.070690E-3
1.636000E-7	1.207739E-3
1.637000E-7	1.079255E-3
1.638000E-7	7.195014E-4
1.639000E-7	1.370426E-4
1.640000E-7	-2.655392E-4
1.641000E-7	-6.766865E-4
1.642000E-7	-5.482030E-4
1.643000E-7	-4.882440E-4
1.644000E-7	-2.312769E-4
1.645000E-7	2.655262E-4
1.646000E-7	5.995834E-4
1.647000E-7	9.165095E-4
1.648000E-7	1.062124E-3
1.649000E-7	1.353354E-3
1.650000E-7	1.233436E-3
1.651000E-7	9.935996E-4
1.652000E-7	8.822472E-4
1.653000E-7	8.565505E-4
1.654000E-7	1.224870E-3
1.655000E-7	1.687411E-3
1.656000E-7	2.098558E-3
1.657000E-7	2.184214E-3
1.658000E-7	1.807329E-3
1.659000E-7	1.207739E-3
1.660000E-7	8.394194E-4
1.661000E-7	7.280670E-4
1.662000E-7	9.250751E-4
1.663000E-7	1.096386E-3
1.664000E-7	1.284829E-3
1.665000E-7	1.147780E-3
1.666000E-7	1.036427E-3
1.667000E-7	7.794604E-4
1.668000E-7	7.109358E-4
1.669000E-7	4.111409E-4
1.670000E-7	4.454032E-4
1.671000E-7	2.398295E-4
1.672000E-7	3.511819E-4
1.673000E-7	5.824523E-4
1.674000E-7	1.019296E-3
1.675000E-7	1.336222E-3
1.676000E-7	1.841591E-3
1.677000E-7	1.841591E-3
1.678000E-7	1.875853E-3
1.679000E-7	1.464706E-3
1.680000E-7	1.053559E-3
1.681000E-7	4.882310E-4
1.682000E-7	1.798705E-4
1.683000E-7	-1.113589E-4
1.684000E-7	1.884360E-4
1.685000E-7	5.824523E-4
1.686000E-7	1.413313E-3
1.687000E-7	1.867288E-3
1.688000E-7	1.995771E-3
1.689000E-7	1.764501E-3
1.690000E-7	1.550362E-3
1.691000E-7	1.370485E-3
1.692000E-7	1.481837E-3
1.693000E-7	1.636017E-3
1.694000E-7	2.012902E-3
1.695000E-7	2.175648E-3
1.696000E-7	2.055730E-3
1.697000E-7	1.661714E-3
1.698000E-7	1.224870E-3
1.699000E-7	8.651161E-4
1.700000E-7	7.537637E-4
1.701000E-7	5.910178E-4
1.702000E-7	6.766735E-4
1.703000E-7	8.908128E-4
1.704000E-7	1.019296E-3
1.705000E-7	1.044993E-3
1.706000E-7	1.190608E-3
1.707000E-7	1.250567E-3
1.708000E-7	1.233436E-3
1.709000E-7	9.764685E-4
1.710000E-7	5.139277E-4
1.711000E-7	-6.497430E-9
1.712000E-7	-1.456212E-4
1.713000E-7	-2.741047E-4
1.714000E-7	2.740917E-4
1.715000E-7	8.222882E-4
1.716000E-7	1.498968E-3
1.717000E-7	1.790198E-3
1.718000E-7	1.833026E-3
1.719000E-7	1.396181E-3
1.720000E-7	1.130649E-3
1.721000E-7	8.308538E-4
1.722000E-7	5.567556E-4
1.723000E-7	6.252801E-4
1.724000E-7	7.023703E-4
1.725000E-7	6.081490E-4
1.726000E-7	1.036427E-3
1.727000E-7	1.233436E-3
1.728000E-7	1.610321E-3
1.729000E-7	1.413313E-3
1.730000E-7	1.310526E-3
1.731000E-7	9.850341E-4
1.732000E-7	5.310589E-4
1.733000E-7	1.370426E-4
1.734000E-7	2.398295E-4
1.735000E-7	1.627393E-4
1.736000E-7	3.254852E-4
1.737000E-7	4.368376E-4
1.738000E-7	5.567556E-4
1.739000E-7	5.567556E-4
1.740000E-7	8.222882E-4
1.741000E-7	7.965915E-4
1.742000E-7	9.507718E-4
1.743000E-7	9.422062E-4
1.744000E-7	1.027862E-3
1.745000E-7	1.173477E-3
1.746000E-7	1.156345E-3
1.747000E-7	8.736817E-4
1.748000E-7	7.109358E-4
1.749000E-7	7.623292E-4
1.750000E-7	1.036427E-3
1.751000E-7	1.336222E-3
1.752000E-7	1.516099E-3
1.753000E-7	1.661714E-3
1.754000E-7	1.773067E-3
1.755000E-7	1.464706E-3
1.756000E-7	1.070690E-3
1.757000E-7	7.109358E-4
1.758000E-7	5.995834E-4
1.759000E-7	6.167146E-4
1.760000E-7	7.880260E-4
1.761000E-7	6.852391E-4
1.762000E-7	2.740917E-4
1.763000E-7	-3.597604E-4
1.764000E-7	-5.482030E-4
1.765000E-7	-7.366455E-4
1.766000E-7	-4.796784E-4
1.767000E-7	1.712464E-5
1.768000E-7	5.053621E-4
1.769000E-7	8.222882E-4
1.770000E-7	8.394194E-4
1.771000E-7	6.852391E-4
1.772000E-7	7.366325E-4
1.773000E-7	8.736817E-4
1.774000E-7	1.413313E-3
1.775000E-7	1.833026E-3
1.776000E-7	2.218476E-3
1.777000E-7	2.132820E-3
1.778000E-7	2.064296E-3
1.779000E-7	1.576058E-3
1.780000E-7	1.344788E-3
1.781000E-7	1.284829E-3
1.782000E-7	1.627452E-3
1.783000E-7	1.370485E-3
1.784000E-7	1.113518E-3
1.785000E-7	5.310589E-4
1.786000E-7	1.199115E-4
1.787000E-7	7.708363E-5
1.788000E-7	2.398295E-4
1.789000E-7	3.940097E-4
1.790000E-7	7.794604E-4
1.791000E-7	6.509768E-4
1.792000E-7	5.910178E-4
1.793000E-7	2.141328E-4
1.794000E-7	-1.113589E-4
1.795000E-7	-3.169326E-4
1.796000E-7	3.425578E-5
1.797000E-7	3.254852E-4
1.798000E-7	5.481900E-4
1.799000E-7	8.222882E-4
1.800000E-7	7.366325E-4
1.801000E-7	6.252801E-4
1.802000E-7	7.280670E-4
1.803000E-7	7.965915E-4
1.804000E-7	8.651161E-4
1.805000E-7	1.002165E-3
1.806000E-7	1.182042E-3
1.807000E-7	1.164911E-3
1.808000E-7	1.267698E-3
1.809000E-7	1.336222E-3
1.810000E-7	1.558927E-3
1.811000E-7	1.387616E-3
1.812000E-7	1.576058E-3
1.813000E-7	1.207739E-3
1.814000E-7	9.336407E-4
1.815000E-7	7.451981E-4
1.816000E-7	6.766735E-4
1.817000E-7	5.396244E-4
1.818000E-7	7.794604E-4
1.819000E-7	9.507718E-4
1.820000E-7	1.087821E-3
1.821000E-7	1.182042E-3
1.822000E-7	1.164911E-3
1.823000E-7	1.087821E-3
1.824000E-7	8.479849E-4
1.825000E-7	6.766735E-4
1.826000E-7	4.454032E-4
1.827000E-7	2.912229E-4
1.828000E-7	3.169196E-4
1.829000E-7	2.826573E-4
1.830000E-7	4.454032E-4
1.831000E-7	3.083540E-4
1.832000E-7	2.997885E-4
1.833000E-7	2.055672E-4
1.834000E-7	4.368376E-4
1.835000E-7	4.710999E-4
1.836000E-7	6.852391E-4
1.837000E-7	7.280670E-4
1.838000E-7	9.250751E-4
1.839000E-7	9.165095E-4
1.840000E-7	9.764685E-4
1.841000E-7	6.766735E-4
1.842000E-7	5.396244E-4
1.843000E-7	1.370426E-4
1.844000E-7	4.282135E-5
1.845000E-7	1.712464E-5
1.846000E-7	5.910178E-4
1.847000E-7	1.173477E-3
1.848000E-7	1.944378E-3
1.849000E-7	2.269870E-3
1.850000E-7	2.055730E-3
1.851000E-7	1.601755E-3
1.852000E-7	7.537637E-4
1.853000E-7	-3.426878E-5
1.854000E-7	-3.169326E-4
1.855000E-7	-7.280800E-4
1.856000E-7	-3.768916E-4
1.857000E-7	-1.884490E-4
1.858000E-7	-1.627523E-4
1.859000E-7	-2.398425E-4
1.860000E-7	-2.312769E-4
1.861000E-7	-5.482030E-4
1.862000E-7	-5.396374E-4
1.863000E-7	-6.081620E-4
1.864000E-7	-8.572068E-6
1.865000E-7	5.310589E-4
1.866000E-7	1.267698E-3
1.867000E-7	1.661714E-3
1.868000E-7	1.935812E-3
1.869000E-7	1.764501E-3
1.870000E-7	1.773067E-3
1.871000E-7	1.498968E-3
1.872000E-7	1.421878E-3
1.873000E-7	1.096386E-3
1.874000E-7	9.250751E-4
1.875000E-7	3.940097E-4
1.876000E-7	7.708363E-5
1.877000E-7	-3.340637E-4
1.878000E-7	-4.711129E-4
1.879000E-7	-2.998015E-4
1.880000E-7	2.740917E-4
1.881000E-7	6.338457E-4
1.882000E-7	1.104952E-3
1.883000E-7	1.336222E-3
1.884000E-7	1.439009E-3
1.885000E-7	9.593374E-4
1.886000E-7	6.167146E-4
1.887000E-7	2.569021E-5
1.888000E-7	-6.853106E-5
1.889000E-7	-5.139992E-5
1.890000E-7	5.567556E-4
1.891000E-7	9.507718E-4
1.892000E-7	1.199173E-3
1.893000E-7	1.387616E-3
1.894000E-7	1.379050E-3
1.895000E-7	1.267698E-3
1.896000E-7	1.199173E-3
1.897000E-7	1.122083E-3
1.898000E-7	9.336407E-4
1.899000E-7	8.736817E-4
1.900000E-7	1.070690E-3
1.901000E-7	9.764685E-4
1.902000E-7	1.190608E-3
1.903000E-7	1.284829E-3
1.904000E-7	1.550362E-3
1.905000E-7	1.464706E-3
1.906000E-7	1.396181E-3
1.907000E-7	9.679029E-4
1.908000E-7	8.993784E-4
1.909000E-7	7.023703E-4
1.910000E-7	9.507718E-4
1.911000E-7	1.079255E-3
1.912000E-7	1.259132E-3
1.913000E-7	1.276263E-3
1.914000E-7	9.850341E-4
1.915000E-7	4.625343E-4
1.916000E-7	1.627393E-4
1.917000E-7	9.421477E-5
1.918000E-7	6.681080E-4
1.919000E-7	1.156345E-3
1.920000E-7	1.704542E-3
1.921000E-7	1.961509E-3
1.922000E-7	2.047165E-3
1.923000E-7	1.704542E-3
1.924000E-7	1.164911E-3
1.925000E-7	6.766735E-4
1.926000E-7	3.854442E-4
1.927000E-7	2.740917E-4
1.928000E-7	5.053621E-4
1.929000E-7	6.938047E-4
1.930000E-7	8.993784E-4
1.931000E-7	8.565505E-4
1.932000E-7	5.396244E-4
1.933000E-7	2.483950E-4
1.934000E-7	3.511819E-4
1.935000E-7	7.109358E-4
1.936000E-7	9.935996E-4
1.937000E-7	1.439009E-3
1.938000E-7	1.524665E-3
1.939000E-7	1.404747E-3
1.940000E-7	1.164911E-3
1.941000E-7	9.593374E-4
1.942000E-7	1.070690E-3
1.943000E-7	1.344788E-3
1.944000E-7	1.867288E-3
1.945000E-7	2.098558E-3
1.946000E-7	2.304132E-3
1.947000E-7	1.944378E-3
1.948000E-7	1.687411E-3
1.949000E-7	1.413313E-3
1.950000E-7	1.242001E-3
1.951000E-7	1.096386E-3
1.952000E-7	1.156345E-3
1.953000E-7	1.147780E-3
1.954000E-7	9.250751E-4
1.955000E-7	8.394194E-4
1.956000E-7	7.880260E-4
1.957000E-7	4.967966E-4
1.958000E-7	5.995834E-4
1.959000E-7	6.252801E-4
1.960000E-7	9.079439E-4
1.961000E-7	8.051571E-4
1.962000E-7	7.195014E-4
1.963000E-7	3.426163E-4
1.964000E-7	1.284771E-4
1.965000E-7	6.851806E-5
1.966000E-7	2.569606E-4
1.967000E-7	6.424113E-4
1.968000E-7	1.096386E-3
1.969000E-7	1.182042E-3
1.970000E-7	1.310526E-3
1.971000E-7	1.156345E-3
1.972000E-7	1.062124E-3
1.973000E-7	7.023703E-4
1.974000E-7	6.681080E-4
1.975000E-7	1.970016E-4
1.976000E-7	7.708363E-5
1.977000E-7	-6.497430E-9
1.978000E-7	1.199115E-4
1.979000E-7	2.912229E-4
1.980000E-7	7.451981E-4
1.981000E-7	1.199173E-3
1.982000E-7	1.550362E-3
1.983000E-7	1.456140E-3
1.984000E-7	1.430444E-3
1.985000E-7	1.173477E-3
1.986000E-7	9.507718E-4
1.987000E-7	6.338457E-4
1.988000E-7	3.340507E-4
1.989000E-7	6.851806E-5
1.990000E-7	-9.422777E-5
1.991000E-7	-1.541868E-4
1.992000E-7	-1.970146E-4
1.993000E-7	-2.912359E-4
1.994000E-7	-2.312769E-4
1.995000E-7	-8.566220E-5
1.996000E-7	-6.497430E-9
1.997000E-7	-3.426878E-5
1.998000E-7	-3.083670E-4
1.999000E-7	-7.280800E-4
2.000000E-7	-1.062137E-3
2.001000E-7	-1.284842E-3
