Study Name	031-0101W_left
Sample Name	2024-01-05
Run Name	spot00
Operator	Elena
Date	1/5/2024
Time	13:26
Sign	POS
Grating Spacing	03.40um
Channel	3
Number Traces	10000
Files in Batch	1
Batch Number	20
dt	50.000001E-12
time stamp (ms)	1:46:21 PM
	
Time	Amplitude
0.000000E+0	3.168950E-4
5.000000E-11	2.398124E-4
1.000000E-10	1.712946E-4
1.500000E-10	8.564730E-5
2.000000E-10	1.712946E-5
2.500000E-10	-8.564730E-6
3.000000E-10	-1.712946E-5
3.500000E-10	1.712946E-5
4.000000E-10	9.421203E-5
4.500000E-10	1.798593E-4
5.000000E-10	2.655066E-4
5.500000E-10	3.768481E-4
6.000000E-10	4.624954E-4
6.500000E-10	5.138838E-4
7.000000E-10	5.824016E-4
7.500000E-10	6.423547E-4
8.000000E-10	6.252253E-4
8.500000E-10	5.824016E-4
9.000000E-10	5.481427E-4
9.500000E-10	4.967543E-4
1.000000E-9	4.282365E-4
1.050000E-9	3.682834E-4
1.100000E-9	3.340245E-4
1.150000E-9	3.340245E-4
1.200000E-9	3.768481E-4
1.250000E-9	4.368012E-4
1.300000E-9	4.881896E-4
1.350000E-9	5.481427E-4
1.400000E-9	5.995311E-4
1.450000E-9	6.252253E-4
1.500000E-9	6.252253E-4
1.550000E-9	5.909664E-4
1.600000E-9	5.481427E-4
1.650000E-9	4.967543E-4
1.700000E-9	4.111070E-4
1.750000E-9	2.826361E-4
1.800000E-9	1.798593E-4
1.850000E-9	1.113415E-4
1.900000E-9	2.569419E-5
1.950000E-9	-6.851784E-5
2.000000E-9	-1.113415E-4
2.050000E-9	-1.113415E-4
2.100000E-9	-1.284709E-4
2.150000E-9	-1.370357E-4
2.200000E-9	-1.199062E-4
2.250000E-9	-9.421203E-5
2.300000E-9	-6.851784E-5
2.350000E-9	-5.995311E-5
2.400000E-9	-1.712946E-5
2.450000E-9	7.708257E-5
2.500000E-9	1.969888E-4
2.550000E-9	2.740714E-4
2.600000E-9	3.425892E-4
2.650000E-9	4.196718E-4
2.700000E-9	4.967543E-4
2.750000E-9	5.909664E-4
2.800000E-9	6.937431E-4
2.850000E-9	7.622610E-4
2.900000E-9	7.965199E-4
2.950000E-9	8.393435E-4
3.000000E-9	8.821672E-4
3.050000E-9	8.736024E-4
3.100000E-9	8.050846E-4
3.150000E-9	7.023078E-4
3.200000E-9	5.738369E-4
3.250000E-9	4.539307E-4
3.300000E-9	3.682834E-4
3.350000E-9	2.826361E-4
3.400000E-9	2.055535E-4
3.450000E-9	1.969888E-4
3.500000E-9	2.055535E-4
3.550000E-9	1.884241E-4
3.600000E-9	1.712946E-4
3.650000E-9	1.969888E-4
3.700000E-9	2.312477E-4
3.750000E-9	2.569419E-4
3.800000E-9	2.826361E-4
3.850000E-9	2.655066E-4
3.900000E-9	2.226830E-4
3.950000E-9	1.798593E-4
4.000000E-9	1.370357E-4
4.050000E-9	1.027768E-4
4.100000E-9	9.421203E-5
4.150000E-9	1.027768E-4
4.200000E-9	1.284709E-4
4.250000E-9	1.884241E-4
4.300000E-9	2.740714E-4
4.350000E-9	3.597187E-4
4.400000E-9	4.368012E-4
4.450000E-9	5.138838E-4
4.500000E-9	5.652722E-4
4.550000E-9	5.824016E-4
4.600000E-9	5.652722E-4
4.650000E-9	5.395780E-4
4.700000E-9	4.967543E-4
4.750000E-9	4.111070E-4
4.800000E-9	2.997655E-4
4.850000E-9	2.141182E-4
4.900000E-9	1.969888E-4
4.950000E-9	1.798593E-4
5.000000E-9	1.370357E-4
5.050000E-9	1.284709E-4
5.100000E-9	1.798593E-4
5.150000E-9	2.312477E-4
5.200000E-9	2.740714E-4
5.250000E-9	3.425892E-4
5.300000E-9	4.453659E-4
5.350000E-9	5.652722E-4
5.400000E-9	6.851784E-4
5.450000E-9	8.050846E-4
5.500000E-9	8.992966E-4
5.550000E-9	9.592497E-4
5.600000E-9	9.849439E-4
5.650000E-9	9.849439E-4
5.700000E-9	9.335555E-4
5.750000E-9	8.136493E-4
5.800000E-9	6.680489E-4
5.850000E-9	5.310132E-4
5.900000E-9	3.768481E-4
5.950000E-9	2.055535E-4
6.000000E-9	7.708257E-5
6.050000E-9	2.569419E-5
6.100000E-9	-1.712946E-5
6.150000E-9	-2.569419E-5
6.200000E-9	1.712946E-5
6.250000E-9	9.421203E-5
6.300000E-9	1.798593E-4
6.350000E-9	2.740714E-4
6.400000E-9	3.682834E-4
6.450000E-9	4.111070E-4
6.500000E-9	4.196718E-4
6.550000E-9	4.196718E-4
6.600000E-9	4.368012E-4
6.650000E-9	4.710601E-4
6.700000E-9	4.796249E-4
6.750000E-9	4.796249E-4
6.800000E-9	4.967543E-4
6.850000E-9	5.310132E-4
6.900000E-9	5.738369E-4
6.950000E-9	6.080958E-4
7.000000E-9	6.423547E-4
7.050000E-9	6.594842E-4
7.100000E-9	6.680489E-4
7.150000E-9	6.851784E-4
7.200000E-9	7.194373E-4
7.250000E-9	7.536962E-4
7.300000E-9	7.451315E-4
7.350000E-9	7.023078E-4
7.400000E-9	6.509195E-4
7.450000E-9	6.166605E-4
7.500000E-9	5.738369E-4
7.550000E-9	5.224485E-4
7.600000E-9	4.624954E-4
7.650000E-9	4.025423E-4
7.700000E-9	3.425892E-4
7.750000E-9	3.168950E-4
7.800000E-9	3.254597E-4
7.850000E-9	3.254597E-4
7.900000E-9	3.340245E-4
7.950000E-9	3.682834E-4
8.000000E-9	4.111070E-4
8.050000E-9	4.539307E-4
8.100000E-9	5.481427E-4
8.150000E-9	6.337900E-4
8.200000E-9	6.509195E-4
8.250000E-9	6.680489E-4
8.300000E-9	7.108726E-4
8.350000E-9	7.365668E-4
8.400000E-9	6.937431E-4
8.450000E-9	6.423547E-4
8.500000E-9	5.995311E-4
8.550000E-9	5.567074E-4
8.600000E-9	5.310132E-4
8.650000E-9	5.224485E-4
8.700000E-9	5.224485E-4
8.750000E-9	5.567074E-4
8.800000E-9	5.995311E-4
8.850000E-9	6.166605E-4
8.900000E-9	6.423547E-4
8.950000E-9	6.851784E-4
9.000000E-9	7.280020E-4
9.050000E-9	7.793904E-4
9.100000E-9	8.222141E-4
9.150000E-9	8.136493E-4
9.200000E-9	7.536962E-4
9.250000E-9	6.937431E-4
9.300000E-9	6.680489E-4
9.350000E-9	6.166605E-4
9.400000E-9	5.310132E-4
9.450000E-9	4.624954E-4
9.500000E-9	4.368012E-4
9.550000E-9	4.368012E-4
9.600000E-9	4.710601E-4
9.650000E-9	5.053191E-4
9.700000E-9	5.224485E-4
9.750000E-9	5.652722E-4
9.800000E-9	6.337900E-4
9.850000E-9	6.937431E-4
9.900000E-9	7.365668E-4
9.950000E-9	7.708257E-4
1.000000E-8	7.622610E-4
1.005000E-8	7.280020E-4
1.010000E-8	6.680489E-4
1.015000E-8	5.824016E-4
1.020000E-8	4.881896E-4
1.025000E-8	3.939776E-4
1.030000E-8	2.655066E-4
1.035000E-8	1.456004E-4
1.040000E-8	9.421203E-5
1.045000E-8	5.138838E-5
1.050000E-8	-3.425892E-5
1.055000E-8	-7.708257E-5
1.060000E-8	-5.138838E-5
1.065000E-8	-1.712946E-5
1.070000E-8	1.712946E-5
1.075000E-8	7.708257E-5
1.080000E-8	1.541651E-4
1.085000E-8	2.312477E-4
1.090000E-8	3.340245E-4
1.095000E-8	4.111070E-4
1.100000E-8	4.624954E-4
1.105000E-8	5.138838E-4
1.110000E-8	5.481427E-4
1.115000E-8	5.224485E-4
1.120000E-8	4.710601E-4
1.125000E-8	4.539307E-4
1.130000E-8	4.282365E-4
1.135000E-8	3.425892E-4
1.140000E-8	2.740714E-4
1.145000E-8	2.483772E-4
1.150000E-8	2.569419E-4
1.155000E-8	2.655066E-4
1.160000E-8	3.168950E-4
1.165000E-8	3.682834E-4
1.170000E-8	3.768481E-4
1.175000E-8	3.854128E-4
1.180000E-8	4.196718E-4
1.185000E-8	4.453659E-4
1.190000E-8	4.368012E-4
1.195000E-8	4.453659E-4
1.200000E-8	4.539307E-4
1.205000E-8	4.539307E-4
1.210000E-8	4.539307E-4
1.215000E-8	4.967543E-4
1.220000E-8	5.824016E-4
1.225000E-8	7.280020E-4
1.230000E-8	9.506850E-4
1.235000E-8	1.216192E-3
1.240000E-8	1.533087E-3
1.245000E-8	2.004147E-3
1.250000E-8	2.740714E-3
1.255000E-8	3.751352E-3
1.260000E-8	5.130273E-3
1.265000E-8	7.031643E-3
1.270000E-8	9.515415E-3
1.275000E-8	1.270149E-2
1.280000E-8	1.676118E-2
1.285000E-8	2.167733E-2
1.290000E-8	2.728723E-2
1.295000E-8	3.353092E-2
1.300000E-8	4.031418E-2
1.305000E-8	4.738865E-2
1.310000E-8	5.449738E-2
1.315000E-8	6.147763E-2
1.320000E-8	6.817525E-2
1.325000E-8	7.443607E-2
1.330000E-8	8.020869E-2
1.335000E-8	8.548457E-2
1.340000E-8	9.024656E-2
1.345000E-8	9.459744E-2
1.350000E-8	9.864856E-2
1.355000E-8	1.024599E-1
1.360000E-8	1.060314E-1
1.365000E-8	1.093802E-1
1.370000E-8	1.124463E-1
1.375000E-8	1.151185E-1
1.380000E-8	1.172768E-1
1.385000E-8	1.186729E-1
1.390000E-8	1.190669E-1
1.395000E-8	1.183903E-1
1.400000E-8	1.166002E-1
1.405000E-8	1.136797E-1
1.410000E-8	1.097056E-1
1.415000E-8	1.049094E-1
1.420000E-8	9.956498E-2
1.425000E-8	9.396365E-2
1.430000E-8	8.840514E-2
1.435000E-8	8.314640E-2
1.440000E-8	7.845292E-2
1.445000E-8	7.453028E-2
1.450000E-8	7.143841E-2
1.455000E-8	6.915163E-2
1.460000E-8	6.768706E-2
1.465000E-8	6.695049E-2
1.470000E-8	6.675350E-2
1.475000E-8	6.693336E-2
1.480000E-8	6.741299E-2
1.485000E-8	6.810673E-2
1.490000E-8	6.892895E-2
1.495000E-8	6.987963E-2
1.500000E-8	7.098448E-2
1.505000E-8	7.227775E-2
1.510000E-8	7.378515E-2
1.515000E-8	7.558374E-2
1.520000E-8	7.768210E-2
1.525000E-8	8.006309E-2
1.530000E-8	8.270103E-2
1.535000E-8	8.552739E-2
1.540000E-8	8.845653E-2
1.545000E-8	9.134284E-2
1.550000E-8	9.403217E-2
1.555000E-8	9.646455E-2
1.560000E-8	9.855435E-2
1.565000E-8	1.001474E-1
1.570000E-8	1.011238E-1
1.575000E-8	1.015606E-1
1.580000E-8	1.015092E-1
1.585000E-8	1.009096E-1
1.590000E-8	9.976197E-2
1.595000E-8	9.819463E-2
1.600000E-8	9.625900E-2
1.605000E-8	9.397222E-2
1.610000E-8	9.141136E-2
1.615000E-8	8.866208E-2
1.620000E-8	8.567299E-2
1.625000E-8	8.250404E-2
1.630000E-8	7.927514E-2
1.635000E-8	7.604624E-2
1.640000E-8	7.284303E-2
1.645000E-8	6.976829E-2
1.650000E-8	6.689054E-2
1.655000E-8	6.425260E-2
1.660000E-8	6.197438E-2
1.665000E-8	6.013297E-2
1.670000E-8	5.878831E-2
1.675000E-8	5.802604E-2
1.680000E-8	5.791470E-2
1.685000E-8	5.841146E-2
1.690000E-8	5.950774E-2
1.695000E-8	6.122925E-2
1.700000E-8	6.351604E-2
1.705000E-8	6.628244E-2
1.710000E-8	6.945139E-2
1.715000E-8	7.292011E-2
1.720000E-8	7.655155E-2
1.725000E-8	8.023439E-2
1.730000E-8	8.388296E-2
1.735000E-8	8.736881E-2
1.740000E-8	9.058058E-2
1.745000E-8	9.338125E-2
1.750000E-8	9.566803E-2
1.755000E-8	9.738954E-2
1.760000E-8	9.852865E-2
1.765000E-8	9.899971E-2
1.770000E-8	9.872564E-2
1.775000E-8	9.773213E-2
1.780000E-8	9.607057E-2
1.785000E-8	9.375810E-2
1.790000E-8	9.089748E-2
1.795000E-8	8.757436E-2
1.800000E-8	8.385727E-2
1.805000E-8	7.993462E-2
1.810000E-8	7.601198E-2
1.815000E-8	7.219211E-2
1.820000E-8	6.858636E-2
1.825000E-8	6.534889E-2
1.830000E-8	6.256535E-2
1.835000E-8	6.027857E-2
1.840000E-8	5.853993E-2
1.845000E-8	5.735800E-2
1.850000E-8	5.664712E-2
1.855000E-8	5.636449E-2
1.860000E-8	5.649296E-2
1.865000E-8	5.698115E-2
1.870000E-8	5.774341E-2
1.875000E-8	5.876261E-2
1.880000E-8	6.003876E-2
1.885000E-8	6.156328E-2
1.890000E-8	6.333618E-2
1.895000E-8	6.535745E-2
1.900000E-8	6.763567E-2
1.905000E-8	7.018796E-2
1.910000E-8	7.299719E-2
1.915000E-8	7.595202E-2
1.920000E-8	7.894968E-2
1.925000E-8	8.193877E-2
1.930000E-8	8.481652E-2
1.935000E-8	8.731742E-2
1.940000E-8	8.927874E-2
1.945000E-8	9.064910E-2
1.950000E-8	9.135141E-2
1.955000E-8	9.118868E-2
1.960000E-8	9.016948E-2
1.965000E-8	8.844796E-2
1.970000E-8	8.616975E-2
1.975000E-8	8.337764E-2
1.980000E-8	8.026865E-2
1.985000E-8	7.708257E-2
1.990000E-8	7.402496E-2
1.995000E-8	7.124999E-2
2.000000E-8	6.885186E-2
2.005000E-8	6.687341E-2
2.010000E-8	6.537458E-2
2.015000E-8	6.435538E-2
2.020000E-8	6.362738E-2
2.025000E-8	6.302785E-2
2.030000E-8	6.251396E-2
2.035000E-8	6.200008E-2
2.040000E-8	6.133203E-2
2.045000E-8	6.044130E-2
2.050000E-8	5.939640E-2
2.055000E-8	5.825729E-2
2.060000E-8	5.706679E-2
2.065000E-8	5.596194E-2
2.070000E-8	5.513117E-2
2.075000E-8	5.472862E-2
2.080000E-8	5.484853E-2
2.085000E-8	5.561936E-2
2.090000E-8	5.712675E-2
2.095000E-8	5.931932E-2
2.100000E-8	6.212855E-2
2.105000E-8	6.546879E-2
2.110000E-8	6.916019E-2
2.115000E-8	7.299719E-2
2.120000E-8	7.675711E-2
2.125000E-8	8.025152E-2
2.130000E-8	8.325774E-2
2.135000E-8	8.560447E-2
2.140000E-8	8.721464E-2
2.145000E-8	8.805399E-2
2.150000E-8	8.813963E-2
2.155000E-8	8.748871E-2
2.160000E-8	8.622113E-2
2.165000E-8	8.445680E-2
2.170000E-8	8.228992E-2
2.175000E-8	7.979759E-2
2.180000E-8	7.711683E-2
2.185000E-8	7.436755E-2
2.190000E-8	7.161827E-2
2.195000E-8	6.884330E-2
2.200000E-8	6.601694E-2
2.205000E-8	6.315632E-2
2.210000E-8	6.032996E-2
2.215000E-8	5.759781E-2
2.220000E-8	5.491705E-2
2.225000E-8	5.239902E-2
2.230000E-8	5.015506E-2
2.235000E-8	4.822799E-2
2.240000E-8	4.672917E-2
2.245000E-8	4.584700E-2
2.250000E-8	4.565857E-2
2.255000E-8	4.612963E-2
2.260000E-8	4.730300E-2
2.265000E-8	4.917868E-2
2.270000E-8	5.160250E-2
2.275000E-8	5.449738E-2
2.280000E-8	5.780336E-2
2.285000E-8	6.133203E-2
2.290000E-8	6.485213E-2
2.295000E-8	6.825233E-2
2.300000E-8	7.141272E-2
2.305000E-8	7.417912E-2
2.310000E-8	7.653443E-2
2.315000E-8	7.847005E-2
2.320000E-8	7.996032E-2
2.325000E-8	8.102234E-2
2.330000E-8	8.169039E-2
2.335000E-8	8.195590E-2
2.340000E-8	8.184456E-2
2.345000E-8	8.145058E-2
2.350000E-8	8.073114E-2
2.355000E-8	7.959203E-2
2.360000E-8	7.806751E-2
2.365000E-8	7.616614E-2
2.370000E-8	7.380228E-2
2.375000E-8	7.102730E-2
2.380000E-8	6.792687E-2
2.385000E-8	6.457806E-2
2.390000E-8	6.106652E-2
2.395000E-8	5.752929E-2
2.400000E-8	5.409483E-2
2.405000E-8	5.090019E-2
2.410000E-8	4.815091E-2
2.415000E-8	4.598403E-2
2.420000E-8	4.441669E-2
2.425000E-8	4.355165E-2
2.430000E-8	4.341462E-2
2.435000E-8	4.391137E-2
2.440000E-8	4.496483E-2
2.445000E-8	4.651505E-2
2.450000E-8	4.841642E-2
2.455000E-8	5.050621E-2
2.460000E-8	5.270735E-2
2.465000E-8	5.501982E-2
2.470000E-8	5.728948E-2
2.475000E-8	5.943066E-2
2.480000E-8	6.149476E-2
2.485000E-8	6.351604E-2
2.490000E-8	6.546023E-2
2.495000E-8	6.731021E-2
2.500000E-8	6.914306E-2
2.505000E-8	7.095879E-2
2.510000E-8	7.272312E-2
2.515000E-8	7.436755E-2
2.520000E-8	7.584925E-2
2.525000E-8	7.708257E-2
2.530000E-8	7.794761E-2
2.535000E-8	7.836728E-2
2.540000E-8	7.828163E-2
2.545000E-8	7.763928E-2
2.550000E-8	7.641452E-2
2.555000E-8	7.464162E-2
2.560000E-8	7.233771E-2
2.565000E-8	6.956274E-2
2.570000E-8	6.647943E-2
2.575000E-8	6.320771E-2
2.580000E-8	5.976468E-2
2.585000E-8	5.624458E-2
2.590000E-8	5.287008E-2
2.595000E-8	4.973539E-2
2.600000E-8	4.684051E-2
2.605000E-8	4.423683E-2
2.610000E-8	4.201000E-2
2.615000E-8	4.020284E-2
2.620000E-8	3.887531E-2
2.625000E-8	3.808735E-2
2.630000E-8	3.788180E-2
2.635000E-8	3.827578E-2
2.640000E-8	3.932924E-2
2.645000E-8	4.105931E-2
2.650000E-8	4.340605E-2
2.655000E-8	4.630949E-2
2.660000E-8	4.975252E-2
2.665000E-8	5.361521E-2
2.670000E-8	5.773484E-2
2.675000E-8	6.196582E-2
2.680000E-8	6.610258E-2
2.685000E-8	6.995671E-2
2.690000E-8	7.339117E-2
2.695000E-8	7.626892E-2
2.700000E-8	7.847005E-2
2.705000E-8	7.991749E-2
2.710000E-8	8.060267E-2
2.715000E-8	8.051702E-2
2.720000E-8	7.967768E-2
2.725000E-8	7.817885E-2
2.730000E-8	7.611475E-2
2.735000E-8	7.356246E-2
2.740000E-8	7.063333E-2
2.745000E-8	6.748151E-2
2.750000E-8	6.417552E-2
2.755000E-8	6.078389E-2
2.760000E-8	5.737512E-2
2.765000E-8	5.403488E-2
2.770000E-8	5.082311E-2
2.775000E-8	4.780832E-2
2.780000E-8	4.503335E-2
2.785000E-8	4.253245E-2
2.790000E-8	4.038270E-2
2.795000E-8	3.867832E-2
2.800000E-8	3.745356E-2
2.805000E-8	3.675126E-2
2.810000E-8	3.664848E-2
2.815000E-8	3.715380E-2
2.820000E-8	3.825008E-2
2.825000E-8	3.991164E-2
2.830000E-8	4.209565E-2
2.835000E-8	4.475071E-2
2.840000E-8	4.776550E-2
2.845000E-8	5.098584E-2
2.850000E-8	5.425756E-2
2.855000E-8	5.749503E-2
2.860000E-8	6.061259E-2
2.865000E-8	6.345608E-2
2.870000E-8	6.593985E-2
2.875000E-8	6.805534E-2
2.880000E-8	6.975972E-2
2.885000E-8	7.101874E-2
2.890000E-8	7.186665E-2
2.895000E-8	7.235484E-2
2.900000E-8	7.244048E-2
2.905000E-8	7.214928E-2
2.910000E-8	7.150693E-2
2.915000E-8	7.048773E-2
2.920000E-8	6.904029E-2
2.925000E-8	6.720743E-2
2.930000E-8	6.504912E-2
2.935000E-8	6.255679E-2
2.940000E-8	5.973899E-2
2.945000E-8	5.667282E-2
2.950000E-8	5.347817E-2
2.955000E-8	5.030066E-2
2.960000E-8	4.723448E-2
2.965000E-8	4.436530E-2
2.970000E-8	4.186440E-2
2.975000E-8	3.986025E-2
2.980000E-8	3.837855E-2
2.985000E-8	3.741930E-2
2.990000E-8	3.705959E-2
2.995000E-8	3.729940E-2
3.000000E-8	3.804453E-2
3.005000E-8	3.918364E-2
3.010000E-8	4.063108E-2
3.015000E-8	4.228407E-2
3.020000E-8	4.403128E-2
3.025000E-8	4.582130E-2
3.030000E-8	4.757707E-2
3.035000E-8	4.924720E-2
3.040000E-8	5.085737E-2
3.045000E-8	5.245897E-2
3.050000E-8	5.403488E-2
3.055000E-8	5.566218E-2
3.060000E-8	5.742651E-2
3.065000E-8	5.935358E-2
3.070000E-8	6.139198E-2
3.075000E-8	6.346465E-2
3.080000E-8	6.554588E-2
3.085000E-8	6.755859E-2
3.090000E-8	6.933149E-2
3.095000E-8	7.067615E-2
3.100000E-8	7.146411E-2
3.105000E-8	7.158401E-2
3.110000E-8	7.090740E-2
3.115000E-8	6.938288E-2
3.120000E-8	6.703614E-2
3.125000E-8	6.390145E-2
3.130000E-8	6.012440E-2
3.135000E-8	5.594482E-2
3.140000E-8	5.161963E-2
3.145000E-8	4.732870E-2
3.150000E-8	4.328614E-2
3.155000E-8	3.972322E-2
3.160000E-8	3.677695E-2
3.165000E-8	3.455868E-2
3.170000E-8	3.314550E-2
3.175000E-8	3.253741E-2
3.180000E-8	3.270014E-2
3.185000E-8	3.353092E-2
3.190000E-8	3.490127E-2
3.195000E-8	3.663991E-2
3.200000E-8	3.866976E-2
3.205000E-8	4.087089E-2
3.210000E-8	4.308916E-2
3.215000E-8	4.524747E-2
3.220000E-8	4.734583E-2
3.225000E-8	4.939280E-2
3.230000E-8	5.139694E-2
3.235000E-8	5.335827E-2
3.240000E-8	5.528533E-2
3.245000E-8	5.720383E-2
3.250000E-8	5.910520E-2
3.255000E-8	6.093805E-2
3.260000E-8	6.265100E-2
3.265000E-8	6.423547E-2
3.270000E-8	6.555444E-2
3.275000E-8	6.644517E-2
3.280000E-8	6.685628E-2
3.285000E-8	6.677920E-2
3.290000E-8	6.614541E-2
3.295000E-8	6.491209E-2
3.300000E-8	6.308780E-2
3.305000E-8	6.078389E-2
3.310000E-8	5.812882E-2
3.315000E-8	5.525964E-2
3.320000E-8	5.226198E-2
3.325000E-8	4.925576E-2
3.330000E-8	4.638658E-2
3.335000E-8	4.377433E-2
3.340000E-8	4.153894E-2
3.345000E-8	3.973178E-2
3.350000E-8	3.835286E-2
3.355000E-8	3.739361E-2
3.360000E-8	3.687973E-2
3.365000E-8	3.672556E-2
3.370000E-8	3.682834E-2
3.375000E-8	3.721375E-2
3.380000E-8	3.788180E-2
3.385000E-8	3.871258E-2
3.390000E-8	3.966326E-2
3.395000E-8	4.075955E-2
3.400000E-8	4.193292E-2
3.405000E-8	4.317480E-2
3.410000E-8	4.452803E-2
3.415000E-8	4.594121E-2
3.420000E-8	4.738865E-2
3.425000E-8	4.891317E-2
3.430000E-8	5.049765E-2
3.435000E-8	5.206499E-2
3.440000E-8	5.363234E-2
3.445000E-8	5.519968E-2
3.450000E-8	5.665569E-2
3.455000E-8	5.789757E-2
3.460000E-8	5.895104E-2
3.465000E-8	5.979038E-2
3.470000E-8	6.032996E-2
3.475000E-8	6.058690E-2
3.480000E-8	6.053551E-2
3.485000E-8	6.015010E-2
3.490000E-8	5.944779E-2
3.495000E-8	5.844572E-2
3.500000E-8	5.712675E-2
3.505000E-8	5.554227E-2
3.510000E-8	5.379507E-2
3.515000E-8	5.187657E-2
3.520000E-8	4.981247E-2
3.525000E-8	4.769698E-2
3.530000E-8	4.556436E-2
3.535000E-8	4.338892E-2
3.540000E-8	4.131626E-2
3.545000E-8	3.947484E-2
3.550000E-8	3.783041E-2
3.555000E-8	3.638297E-2
3.560000E-8	3.523530E-2
3.565000E-8	3.446447E-2
3.570000E-8	3.402767E-2
3.575000E-8	3.390777E-2
3.580000E-8	3.415614E-2
3.585000E-8	3.474711E-2
3.590000E-8	3.564641E-2
3.595000E-8	3.688829E-2
3.600000E-8	3.842994E-2
3.605000E-8	4.018571E-2
3.610000E-8	4.213847E-2
3.615000E-8	4.432248E-2
3.620000E-8	4.668634E-2
3.625000E-8	4.915298E-2
3.630000E-8	5.167958E-2
3.635000E-8	5.420617E-2
3.640000E-8	5.662143E-2
3.645000E-8	5.884826E-2
3.650000E-8	6.080958E-2
3.655000E-8	6.237693E-2
3.660000E-8	6.343039E-2
3.665000E-8	6.391001E-2
3.670000E-8	6.377298E-2
3.675000E-8	6.295933E-2
3.680000E-8	6.146907E-2
3.685000E-8	5.932788E-2
3.690000E-8	5.664712E-2
3.695000E-8	5.357238E-2
3.700000E-8	5.028353E-2
3.705000E-8	4.690046E-2
3.710000E-8	4.358591E-2
3.715000E-8	4.055400E-2
3.720000E-8	3.795888E-2
3.725000E-8	3.581770E-2
3.730000E-8	3.418184E-2
3.735000E-8	3.311125E-2
3.740000E-8	3.259736E-2
3.745000E-8	3.253741E-2
3.750000E-8	3.284574E-2
3.755000E-8	3.345383E-2
3.760000E-8	3.423322E-2
3.765000E-8	3.505544E-2
3.770000E-8	3.586909E-2
3.775000E-8	3.666561E-2
3.780000E-8	3.745356E-2
3.785000E-8	3.829291E-2
3.790000E-8	3.922646E-2
3.795000E-8	4.028849E-2
3.800000E-8	4.154750E-2
3.805000E-8	4.308916E-2
3.810000E-8	4.492201E-2
3.815000E-8	4.700324E-2
3.820000E-8	4.930715E-2
3.825000E-8	5.177379E-2
3.830000E-8	5.424043E-2
3.835000E-8	5.654435E-2
3.840000E-8	5.854849E-2
3.845000E-8	6.010727E-2
3.850000E-8	6.105796E-2
3.855000E-8	6.130634E-2
3.860000E-8	6.080958E-2
3.865000E-8	5.959339E-2
3.870000E-8	5.775197E-2
3.875000E-8	5.541380E-2
3.880000E-8	5.268165E-2
3.885000E-8	4.973539E-2
3.890000E-8	4.680625E-2
3.895000E-8	4.407410E-2
3.900000E-8	4.160746E-2
3.905000E-8	3.947484E-2
3.910000E-8	3.777046E-2
3.915000E-8	3.652001E-2
3.920000E-8	3.562928E-2
3.925000E-8	3.500405E-2
3.930000E-8	3.459294E-2
3.935000E-8	3.433600E-2
3.940000E-8	3.412188E-2
3.945000E-8	3.389920E-2
3.950000E-8	3.365082E-2
3.955000E-8	3.339388E-2
3.960000E-8	3.321402E-2
3.965000E-8	3.317120E-2
3.970000E-8	3.333393E-2
3.975000E-8	3.379642E-2
3.980000E-8	3.464433E-2
3.985000E-8	3.590335E-2
3.990000E-8	3.757347E-2
3.995000E-8	3.966326E-2
4.000000E-8	4.212134E-2
4.005000E-8	4.481923E-2
4.010000E-8	4.765416E-2
4.015000E-8	5.049765E-2
4.020000E-8	5.321267E-2
4.025000E-8	5.565361E-2
4.030000E-8	5.770058E-2
4.035000E-8	5.919941E-2
4.040000E-8	6.007301E-2
4.045000E-8	6.033852E-2
4.050000E-8	6.000450E-2
4.055000E-8	5.907094E-2
4.060000E-8	5.759781E-2
4.065000E-8	5.570500E-2
4.070000E-8	5.345248E-2
4.075000E-8	5.091732E-2
4.080000E-8	4.820230E-2
4.085000E-8	4.542733E-2
4.090000E-8	4.264379E-2
4.095000E-8	3.992877E-2
4.100000E-8	3.735079E-2
4.105000E-8	3.491840E-2
4.110000E-8	3.266588E-2
4.115000E-8	3.066173E-2
4.120000E-8	2.897448E-2
4.125000E-8	2.760412E-2
4.130000E-8	2.661918E-2
4.135000E-8	2.613099E-2
4.140000E-8	2.614812E-2
4.145000E-8	2.660205E-2
4.150000E-8	2.754417E-2
4.155000E-8	2.902587E-2
4.160000E-8	3.096150E-2
4.165000E-8	3.324828E-2
4.170000E-8	3.586909E-2
4.175000E-8	3.875540E-2
4.180000E-8	4.173593E-2
4.185000E-8	4.469932E-2
4.190000E-8	4.756851E-2
4.195000E-8	5.023214E-2
4.200000E-8	5.257031E-2
4.205000E-8	5.451451E-2
4.210000E-8	5.601333E-2
4.215000E-8	5.702397E-2
4.220000E-8	5.752929E-2
4.225000E-8	5.752073E-2
4.230000E-8	5.702397E-2
4.235000E-8	5.607329E-2
4.240000E-8	5.470293E-2
4.245000E-8	5.298142E-2
4.250000E-8	5.098584E-2
4.255000E-8	4.881896E-2
4.260000E-8	4.652361E-2
4.265000E-8	4.415118E-2
4.270000E-8	4.179588E-2
4.275000E-8	3.955192E-2
4.280000E-8	3.744500E-2
4.285000E-8	3.551793E-2
4.290000E-8	3.381355E-2
4.295000E-8	3.234042E-2
4.300000E-8	3.109853E-2
4.305000E-8	3.013928E-2
4.310000E-8	2.949693E-2
4.315000E-8	2.912865E-2
4.320000E-8	2.901730E-2
4.325000E-8	2.916290E-2
4.330000E-8	2.958258E-2
4.335000E-8	3.025919E-2
4.340000E-8	3.118418E-2
4.345000E-8	3.233185E-2
4.350000E-8	3.368508E-2
4.355000E-8	3.520104E-2
4.360000E-8	3.688829E-2
4.365000E-8	3.872114E-2
4.370000E-8	4.063964E-2
4.375000E-8	4.258384E-2
4.380000E-8	4.455372E-2
4.385000E-8	4.647222E-2
4.390000E-8	4.825369E-2
4.395000E-8	4.981247E-2
4.400000E-8	5.113144E-2
4.405000E-8	5.215920E-2
4.410000E-8	5.281869E-2
4.415000E-8	5.305850E-2
4.420000E-8	5.287008E-2
4.425000E-8	5.224485E-2
4.430000E-8	5.123421E-2
4.435000E-8	4.992381E-2
4.440000E-8	4.834790E-2
4.445000E-8	4.651505E-2
4.450000E-8	4.456229E-2
4.455000E-8	4.259240E-2
4.460000E-8	4.067390E-2
4.465000E-8	3.884961E-2
4.470000E-8	3.716236E-2
4.475000E-8	3.562071E-2
4.480000E-8	3.425892E-2
4.485000E-8	3.311125E-2
4.490000E-8	3.210917E-2
4.495000E-8	3.121844E-2
4.500000E-8	3.043905E-2
4.505000E-8	2.981382E-2
4.510000E-8	2.930851E-2
4.515000E-8	2.892309E-2
4.520000E-8	2.868328E-2
4.525000E-8	2.863189E-2
4.530000E-8	2.883745E-2
4.535000E-8	2.933420E-2
4.540000E-8	3.016498E-2
4.545000E-8	3.134691E-2
4.550000E-8	3.291426E-2
4.555000E-8	3.482419E-2
4.560000E-8	3.704246E-2
4.565000E-8	3.951766E-2
4.570000E-8	4.212991E-2
4.575000E-8	4.472502E-2
4.580000E-8	4.716597E-2
4.585000E-8	4.939280E-2
4.590000E-8	5.127704E-2
4.595000E-8	5.268165E-2
4.600000E-8	5.350387E-2
4.605000E-8	5.371799E-2
4.610000E-8	5.332401E-2
4.615000E-8	5.238189E-2
4.620000E-8	5.093445E-2
4.625000E-8	4.907590E-2
4.630000E-8	4.694328E-2
4.635000E-8	4.464794E-2
4.640000E-8	4.227551E-2
4.645000E-8	3.995446E-2
4.650000E-8	3.775333E-2
4.655000E-8	3.568923E-2
4.660000E-8	3.379642E-2
4.665000E-8	3.214343E-2
4.670000E-8	3.077307E-2
4.675000E-8	2.962540E-2
4.680000E-8	2.868328E-2
4.685000E-8	2.796384E-2
4.690000E-8	2.750991E-2
4.695000E-8	2.731292E-2
4.700000E-8	2.734718E-2
4.705000E-8	2.762125E-2
4.710000E-8	2.817796E-2
4.715000E-8	2.900874E-2
4.720000E-8	3.007933E-2
4.725000E-8	3.136404E-2
4.730000E-8	3.290569E-2
4.735000E-8	3.462720E-2
4.740000E-8	3.640867E-2
4.745000E-8	3.820726E-2
4.750000E-8	3.998872E-2
4.755000E-8	4.165885E-2
4.760000E-8	4.313198E-2
4.765000E-8	4.435674E-2
4.770000E-8	4.533311E-2
4.775000E-8	4.601829E-2
4.780000E-8	4.639514E-2
4.785000E-8	4.648935E-2
4.790000E-8	4.633519E-2
4.795000E-8	4.602686E-2
4.800000E-8	4.556436E-2
4.805000E-8	4.494770E-2
4.810000E-8	4.424539E-2
4.815000E-8	4.350883E-2
4.820000E-8	4.271231E-2
4.825000E-8	4.185583E-2
4.830000E-8	4.093941E-2
4.835000E-8	3.990308E-2
4.840000E-8	3.872114E-2
4.845000E-8	3.741930E-2
4.850000E-8	3.600612E-2
4.855000E-8	3.449873E-2
4.860000E-8	3.293995E-2
4.865000E-8	3.142399E-2
4.870000E-8	3.002794E-2
4.875000E-8	2.881175E-2
4.880000E-8	2.785250E-2
4.885000E-8	2.721871E-2
4.890000E-8	2.694464E-2
4.895000E-8	2.705598E-2
4.900000E-8	2.745852E-2
4.905000E-8	2.812657E-2
4.910000E-8	2.906869E-2
4.915000E-8	3.020780E-2
4.920000E-8	3.143256E-2
4.925000E-8	3.269157E-2
4.930000E-8	3.395059E-2
4.935000E-8	3.511539E-2
4.940000E-8	3.618598E-2
4.945000E-8	3.722232E-2
4.950000E-8	3.825865E-2
4.955000E-8	3.922646E-2
4.960000E-8	4.016002E-2
4.965000E-8	4.110214E-2
4.970000E-8	4.203569E-2
4.975000E-8	4.295212E-2
4.980000E-8	4.385998E-2
4.985000E-8	4.467363E-2
4.990000E-8	4.529886E-2
4.995000E-8	4.566714E-2
5.000000E-8	4.579561E-2
5.005000E-8	4.561575E-2
5.010000E-8	4.505904E-2
5.015000E-8	4.409123E-2
5.020000E-8	4.276370E-2
5.025000E-8	4.112783E-2
5.030000E-8	3.926929E-2
5.035000E-8	3.725657E-2
5.040000E-8	3.517535E-2
5.045000E-8	3.313694E-2
5.050000E-8	3.120988E-2
5.055000E-8	2.941985E-2
5.060000E-8	2.785250E-2
5.065000E-8	2.660205E-2
5.070000E-8	2.568562E-2
5.075000E-8	2.506896E-2
5.080000E-8	2.476920E-2
5.085000E-8	2.480346E-2
5.090000E-8	2.512035E-2
5.095000E-8	2.571132E-2
5.100000E-8	2.658492E-2
5.105000E-8	2.771547E-2
5.110000E-8	2.903443E-2
5.115000E-8	3.051613E-2
5.120000E-8	3.216913E-2
5.125000E-8	3.395059E-2
5.130000E-8	3.580057E-2
5.135000E-8	3.764199E-2
5.140000E-8	3.940632E-2
5.145000E-8	4.102506E-2
5.150000E-8	4.248106E-2
5.155000E-8	4.367156E-2
5.160000E-8	4.452803E-2
5.165000E-8	4.505048E-2
5.170000E-8	4.525603E-2
5.175000E-8	4.513613E-2
5.180000E-8	4.469076E-2
5.185000E-8	4.394563E-2
5.190000E-8	4.297781E-2
5.195000E-8	4.183871E-2
5.200000E-8	4.057969E-2
5.205000E-8	3.920933E-2
5.210000E-8	3.777046E-2
5.215000E-8	3.631445E-2
5.220000E-8	3.488414E-2
5.225000E-8	3.352235E-2
5.230000E-8	3.222051E-2
5.235000E-8	3.098719E-2
5.240000E-8	2.985665E-2
5.245000E-8	2.883745E-2
5.250000E-8	2.791245E-2
5.255000E-8	2.711593E-2
5.260000E-8	2.646502E-2
5.265000E-8	2.599395E-2
5.270000E-8	2.571988E-2
5.275000E-8	2.566850E-2
5.280000E-8	2.582266E-2
5.285000E-8	2.619951E-2
5.290000E-8	2.682473E-2
5.295000E-8	2.763838E-2
5.300000E-8	2.863189E-2
5.305000E-8	2.981382E-2
5.310000E-8	3.112423E-2
5.315000E-8	3.246889E-2
5.320000E-8	3.383068E-2
5.325000E-8	3.521817E-2
5.330000E-8	3.655427E-2
5.335000E-8	3.778759E-2
5.340000E-8	3.892670E-2
5.345000E-8	3.996303E-2
5.350000E-8	4.083663E-2
5.355000E-8	4.153037E-2
5.360000E-8	4.205282E-2
5.365000E-8	4.239541E-2
5.370000E-8	4.253245E-2
5.375000E-8	4.245537E-2
5.380000E-8	4.214704E-2
5.385000E-8	4.160746E-2
5.390000E-8	4.081950E-2
5.395000E-8	3.980886E-2
5.400000E-8	3.859267E-2
5.405000E-8	3.719662E-2
5.410000E-8	3.564641E-2
5.415000E-8	3.403624E-2
5.420000E-8	3.238324E-2
5.425000E-8	3.070456E-2
5.430000E-8	2.910295E-2
5.435000E-8	2.763838E-2
5.440000E-8	2.631085E-2
5.445000E-8	2.518031E-2
5.450000E-8	2.434096E-2
5.455000E-8	2.378425E-2
5.460000E-8	2.348449E-2
5.465000E-8	2.350162E-2
5.470000E-8	2.380995E-2
5.475000E-8	2.431527E-2
5.480000E-8	2.500901E-2
5.485000E-8	2.593400E-2
5.490000E-8	2.703029E-2
5.495000E-8	2.820366E-2
5.500000E-8	2.947124E-2
5.505000E-8	3.084159E-2
5.510000E-8	3.228903E-2
5.515000E-8	3.377929E-2
5.520000E-8	3.529525E-2
5.525000E-8	3.680264E-2
5.530000E-8	3.829291E-2
5.535000E-8	3.974891E-2
5.540000E-8	4.110214E-2
5.545000E-8	4.230120E-2
5.550000E-8	4.327758E-2
5.555000E-8	4.395419E-2
5.560000E-8	4.423683E-2
5.565000E-8	4.410836E-2
5.570000E-8	4.353452E-2
5.575000E-8	4.251532E-2
5.580000E-8	4.108501E-2
5.585000E-8	3.928642E-2
5.590000E-8	3.716236E-2
5.595000E-8	3.482419E-2
5.600000E-8	3.240894E-2
5.605000E-8	3.001938E-2
5.610000E-8	2.774116E-2
5.615000E-8	2.569419E-2
5.620000E-8	2.402407E-2
5.625000E-8	2.273079E-2
5.630000E-8	2.181437E-2
5.635000E-8	2.133474E-2
5.640000E-8	2.131761E-2
5.645000E-8	2.170303E-2
5.650000E-8	2.240533E-2
5.655000E-8	2.338171E-2
5.660000E-8	2.452939E-2
5.665000E-8	2.577127E-2
5.670000E-8	2.706455E-2
5.675000E-8	2.835782E-2
5.680000E-8	2.957401E-2
5.685000E-8	3.070456E-2
5.690000E-8	3.179228E-2
5.695000E-8	3.282861E-2
5.700000E-8	3.378786E-2
5.705000E-8	3.469572E-2
5.710000E-8	3.558645E-2
5.715000E-8	3.645149E-2
5.720000E-8	3.725657E-2
5.725000E-8	3.801027E-2
5.730000E-8	3.872114E-2
5.735000E-8	3.929498E-2
5.740000E-8	3.965470E-2
5.745000E-8	3.979173E-2
5.750000E-8	3.970609E-2
5.755000E-8	3.937206E-2
5.760000E-8	3.872971E-2
5.765000E-8	3.779615E-2
5.770000E-8	3.664848E-2
5.775000E-8	3.533808E-2
5.780000E-8	3.384781E-2
5.785000E-8	3.227190E-2
5.790000E-8	3.072169E-2
5.795000E-8	2.923142E-2
5.800000E-8	2.779255E-2
5.805000E-8	2.648214E-2
5.810000E-8	2.542012E-2
5.815000E-8	2.459790E-2
5.820000E-8	2.397268E-2
5.825000E-8	2.357014E-2
5.830000E-8	2.339028E-2
5.835000E-8	2.339028E-2
5.840000E-8	2.357870E-2
5.845000E-8	2.392129E-2
5.850000E-8	2.437522E-2
5.855000E-8	2.493193E-2
5.860000E-8	2.561711E-2
5.865000E-8	2.637080E-2
5.870000E-8	2.715019E-2
5.875000E-8	2.803236E-2
5.880000E-8	2.905156E-2
5.885000E-8	3.014785E-2
5.890000E-8	3.129552E-2
5.895000E-8	3.248602E-2
5.900000E-8	3.370221E-2
5.905000E-8	3.490984E-2
5.910000E-8	3.604895E-2
5.915000E-8	3.706815E-2
5.920000E-8	3.791606E-2
5.925000E-8	3.853272E-2
5.930000E-8	3.890957E-2
5.935000E-8	3.902947E-2
5.940000E-8	3.884105E-2
5.945000E-8	3.836142E-2
5.950000E-8	3.764199E-2
5.955000E-8	3.673413E-2
5.960000E-8	3.562071E-2
5.965000E-8	3.435313E-2
5.970000E-8	3.301703E-2
5.975000E-8	3.162955E-2
5.980000E-8	3.019924E-2
5.985000E-8	2.877749E-2
5.990000E-8	2.744139E-2
5.995000E-8	2.620807E-2
6.000000E-8	2.508609E-2
6.005000E-8	2.410115E-2
6.010000E-8	2.326181E-2
6.015000E-8	2.259376E-2
6.020000E-8	2.216552E-2
6.025000E-8	2.196853E-2
6.030000E-8	2.196853E-2
6.035000E-8	2.217409E-2
6.040000E-8	2.262802E-2
6.045000E-8	2.333889E-2
6.050000E-8	2.425531E-2
6.055000E-8	2.531734E-2
6.060000E-8	2.655923E-2
6.065000E-8	2.797241E-2
6.070000E-8	2.942841E-2
6.075000E-8	3.085016E-2
6.080000E-8	3.224621E-2
6.085000E-8	3.362513E-2
6.090000E-8	3.487558E-2
6.095000E-8	3.592904E-2
6.100000E-8	3.679408E-2
6.105000E-8	3.747069E-2
6.110000E-8	3.788180E-2
6.115000E-8	3.801884E-2
6.120000E-8	3.790749E-2
6.125000E-8	3.754778E-2
6.130000E-8	3.692255E-2
6.135000E-8	3.607464E-2
6.140000E-8	3.502118E-2
6.145000E-8	3.382212E-2
6.150000E-8	3.248602E-2
6.155000E-8	3.105571E-2
6.160000E-8	2.959114E-2
6.165000E-8	2.813514E-2
6.170000E-8	2.677335E-2
6.175000E-8	2.556572E-2
6.180000E-8	2.456365E-2
6.185000E-8	2.380138E-2
6.190000E-8	2.327894E-2
6.195000E-8	2.298773E-2
6.200000E-8	2.291922E-2
6.205000E-8	2.308195E-2
6.210000E-8	2.344167E-2
6.215000E-8	2.387847E-2
6.220000E-8	2.432383E-2
6.225000E-8	2.479489E-2
6.230000E-8	2.529165E-2
6.235000E-8	2.572845E-2
6.240000E-8	2.611386E-2
6.245000E-8	2.650784E-2
6.250000E-8	2.686756E-2
6.255000E-8	2.719302E-2
6.260000E-8	2.758699E-2
6.265000E-8	2.810944E-2
6.270000E-8	2.868328E-2
6.275000E-8	2.932563E-2
6.280000E-8	3.010503E-2
6.285000E-8	3.098719E-2
6.290000E-8	3.190362E-2
6.295000E-8	3.283717E-2
6.300000E-8	3.372791E-2
6.305000E-8	3.444734E-2
6.310000E-8	3.496979E-2
6.315000E-8	3.528669E-2
6.320000E-8	3.532095E-2
6.325000E-8	3.503831E-2
6.330000E-8	3.447304E-2
6.335000E-8	3.369365E-2
6.340000E-8	3.270014E-2
6.345000E-8	3.154390E-2
6.350000E-8	3.031914E-2
6.355000E-8	2.908582E-2
6.360000E-8	2.789532E-2
6.365000E-8	2.682473E-2
6.370000E-8	2.586548E-2
6.375000E-8	2.506040E-2
6.380000E-8	2.445230E-2
6.385000E-8	2.401550E-2
6.390000E-8	2.364722E-2
6.395000E-8	2.334745E-2
6.400000E-8	2.315046E-2
6.405000E-8	2.302199E-2
6.410000E-8	2.289352E-2
6.415000E-8	2.278218E-2
6.420000E-8	2.279075E-2
6.425000E-8	2.293635E-2
6.430000E-8	2.315046E-2
6.435000E-8	2.346736E-2
6.440000E-8	2.398124E-2
6.445000E-8	2.467499E-2
6.450000E-8	2.552289E-2
6.455000E-8	2.651640E-2
6.460000E-8	2.768977E-2
6.465000E-8	2.894022E-2
6.470000E-8	3.019067E-2
6.475000E-8	3.140686E-2
6.480000E-8	3.256310E-2
6.485000E-8	3.358231E-2
6.490000E-8	3.441308E-2
6.495000E-8	3.498692E-2
6.500000E-8	3.528669E-2
6.505000E-8	3.530382E-2
6.510000E-8	3.505544E-2
6.515000E-8	3.454156E-2
6.520000E-8	3.376216E-2
6.525000E-8	3.273440E-2
6.530000E-8	3.156103E-2
6.535000E-8	3.029345E-2
6.540000E-8	2.894879E-2
6.545000E-8	2.756987E-2
6.550000E-8	2.624233E-2
6.555000E-8	2.500045E-2
6.560000E-8	2.385277E-2
6.565000E-8	2.285070E-2
6.570000E-8	2.202849E-2
6.575000E-8	2.138613E-2
6.580000E-8	2.090651E-2
6.585000E-8	2.058961E-2
6.590000E-8	2.047827E-2
6.595000E-8	2.055535E-2
6.600000E-8	2.080373E-2
6.605000E-8	2.121484E-2
6.610000E-8	2.178011E-2
6.615000E-8	2.245672E-2
6.620000E-8	2.321042E-2
6.625000E-8	2.407546E-2
6.630000E-8	2.502614E-2
6.635000E-8	2.599395E-2
6.640000E-8	2.696177E-2
6.645000E-8	2.793815E-2
6.650000E-8	2.888027E-2
6.655000E-8	2.976244E-2
6.660000E-8	3.054183E-2
6.665000E-8	3.119275E-2
6.670000E-8	3.171519E-2
6.675000E-8	3.212630E-2
6.680000E-8	3.240037E-2
6.685000E-8	3.250315E-2
6.690000E-8	3.245176E-2
6.695000E-8	3.225477E-2
6.700000E-8	3.189505E-2
6.705000E-8	3.142399E-2
6.710000E-8	3.084159E-2
6.715000E-8	3.015641E-2
6.720000E-8	2.942841E-2
6.725000E-8	2.866615E-2
6.730000E-8	2.786107E-2
6.735000E-8	2.703885E-2
6.740000E-8	2.625090E-2
6.745000E-8	2.547151E-2
6.750000E-8	2.470068E-2
6.755000E-8	2.398124E-2
6.760000E-8	2.333889E-2
6.765000E-8	2.274792E-2
6.770000E-8	2.222547E-2
6.775000E-8	2.177154E-2
6.780000E-8	2.138613E-2
6.785000E-8	2.111206E-2
6.790000E-8	2.099215E-2
6.795000E-8	2.101785E-2
6.800000E-8	2.117201E-2
6.805000E-8	2.147178E-2
6.810000E-8	2.190001E-2
6.815000E-8	2.242246E-2
6.820000E-8	2.304769E-2
6.825000E-8	2.379282E-2
6.830000E-8	2.463216E-2
6.835000E-8	2.554859E-2
6.840000E-8	2.649927E-2
6.845000E-8	2.743283E-2
6.850000E-8	2.834069E-2
6.855000E-8	2.923142E-2
6.860000E-8	3.002794E-2
6.865000E-8	3.069599E-2
6.870000E-8	3.124413E-2
6.875000E-8	3.163811E-2
6.880000E-8	3.183510E-2
6.885000E-8	3.180941E-2
6.890000E-8	3.161242E-2
6.895000E-8	3.127839E-2
6.900000E-8	3.077307E-2
6.905000E-8	3.007077E-2
6.910000E-8	2.919716E-2
6.915000E-8	2.823791E-2
6.920000E-8	2.724441E-2
6.925000E-8	2.619094E-2
6.930000E-8	2.509466E-2
6.935000E-8	2.404976E-2
6.940000E-8	2.309908E-2
6.945000E-8	2.219978E-2
6.950000E-8	2.135187E-2
6.955000E-8	2.062387E-2
6.960000E-8	2.004147E-2
6.965000E-8	1.960467E-2
6.970000E-8	1.932203E-2
6.975000E-8	1.919356E-2
6.980000E-8	1.918499E-2
6.985000E-8	1.932203E-2
6.990000E-8	1.963893E-2
6.995000E-8	2.012712E-2
7.000000E-8	2.076091E-2
7.005000E-8	2.153173E-2
7.010000E-8	2.243959E-2
7.015000E-8	2.349305E-2
7.020000E-8	2.464929E-2
7.025000E-8	2.584835E-2
7.030000E-8	2.703029E-2
7.035000E-8	2.816083E-2
7.040000E-8	2.920573E-2
7.045000E-8	3.012215E-2
7.050000E-8	3.087585E-2
7.055000E-8	3.142399E-2
7.060000E-8	3.170663E-2
7.065000E-8	3.169806E-2
7.070000E-8	3.142399E-2
7.075000E-8	3.093580E-2
7.080000E-8	3.025919E-2
7.085000E-8	2.942841E-2
7.090000E-8	2.844347E-2
7.095000E-8	2.736431E-2
7.100000E-8	2.628516E-2
7.105000E-8	2.522313E-2
7.110000E-8	2.417823E-2
7.115000E-8	2.322755E-2
7.120000E-8	2.241390E-2
7.125000E-8	2.171159E-2
7.130000E-8	2.113775E-2
7.135000E-8	2.073521E-2
7.140000E-8	2.045257E-2
7.145000E-8	2.022133E-2
7.150000E-8	2.005003E-2
7.155000E-8	2.000721E-2
7.160000E-8	2.008429E-2
7.165000E-8	2.026415E-2
7.170000E-8	2.052109E-2
7.175000E-8	2.084655E-2
7.180000E-8	2.122340E-2
7.185000E-8	2.167733E-2
7.190000E-8	2.222547E-2
7.195000E-8	2.284213E-2
7.200000E-8	2.351875E-2
7.205000E-8	2.422962E-2
7.210000E-8	2.495762E-2
7.215000E-8	2.565137E-2
7.220000E-8	2.630229E-2
7.225000E-8	2.691038E-2
7.230000E-8	2.745852E-2
7.235000E-8	2.786963E-2
7.240000E-8	2.817796E-2
7.245000E-8	2.839208E-2
7.250000E-8	2.850342E-2
7.255000E-8	2.850342E-2
7.260000E-8	2.842634E-2
7.265000E-8	2.824648E-2
7.270000E-8	2.798097E-2
7.275000E-8	2.766408E-2
7.280000E-8	2.731292E-2
7.285000E-8	2.689325E-2
7.290000E-8	2.641363E-2
7.295000E-8	2.590831E-2
7.300000E-8	2.532591E-2
7.305000E-8	2.466642E-2
7.310000E-8	2.396411E-2
7.315000E-8	2.324468E-2
7.320000E-8	2.248242E-2
7.325000E-8	2.171159E-2
7.330000E-8	2.100072E-2
7.335000E-8	2.037549E-2
7.340000E-8	1.984448E-2
7.345000E-8	1.943337E-2
7.350000E-8	1.921069E-2
7.355000E-8	1.919356E-2
7.360000E-8	1.934772E-2
7.365000E-8	1.964749E-2
7.370000E-8	2.009286E-2
7.375000E-8	2.068382E-2
7.380000E-8	2.134331E-2
7.385000E-8	2.204561E-2
7.390000E-8	2.282500E-2
7.395000E-8	2.363865E-2
7.400000E-8	2.440092E-2
7.405000E-8	2.512035E-2
7.410000E-8	2.579697E-2
7.415000E-8	2.640506E-2
7.420000E-8	2.689325E-2
7.425000E-8	2.730436E-2
7.430000E-8	2.769834E-2
7.435000E-8	2.803236E-2
7.440000E-8	2.822935E-2
7.445000E-8	2.832356E-2
7.450000E-8	2.833213E-2
7.455000E-8	2.821222E-2
7.460000E-8	2.792102E-2
7.465000E-8	2.749278E-2
7.470000E-8	2.697033E-2
7.475000E-8	2.632798E-2
7.480000E-8	2.554859E-2
7.485000E-8	2.463216E-2
7.490000E-8	2.363009E-2
7.495000E-8	2.258519E-2
7.500000E-8	2.157455E-2
7.505000E-8	2.065813E-2
7.510000E-8	1.984448E-2
7.515000E-8	1.914217E-2
7.520000E-8	1.862829E-2
7.525000E-8	1.835422E-2
7.530000E-8	1.826000E-2
7.535000E-8	1.831996E-2
7.540000E-8	1.855120E-2
7.545000E-8	1.893662E-2
7.550000E-8	1.940768E-2
7.555000E-8	1.993869E-2
7.560000E-8	2.052966E-2
7.565000E-8	2.113775E-2
7.570000E-8	2.172872E-2
7.575000E-8	2.231112E-2
7.580000E-8	2.290209E-2
7.585000E-8	2.347592E-2
7.590000E-8	2.403263E-2
7.595000E-8	2.456365E-2
7.600000E-8	2.506896E-2
7.605000E-8	2.554859E-2
7.610000E-8	2.598539E-2
7.615000E-8	2.632798E-2
7.620000E-8	2.655923E-2
7.625000E-8	2.667913E-2
7.630000E-8	2.669626E-2
7.635000E-8	2.657636E-2
7.640000E-8	2.631941E-2
7.645000E-8	2.596826E-2
7.650000E-8	2.554859E-2
7.655000E-8	2.502614E-2
7.660000E-8	2.440948E-2
7.665000E-8	2.382708E-2
7.670000E-8	2.328750E-2
7.675000E-8	2.274792E-2
7.680000E-8	2.225117E-2
7.685000E-8	2.183150E-2
7.690000E-8	2.143752E-2
7.695000E-8	2.106924E-2
7.700000E-8	2.074378E-2
7.705000E-8	2.045257E-2
7.710000E-8	2.016137E-2
7.715000E-8	1.989587E-2
7.720000E-8	1.967318E-2
7.725000E-8	1.945907E-2
7.730000E-8	1.926208E-2
7.735000E-8	1.915074E-2
7.740000E-8	1.914217E-2
7.745000E-8	1.920212E-2
7.750000E-8	1.936485E-2
7.755000E-8	1.964749E-2
7.760000E-8	2.003290E-2
7.765000E-8	2.050396E-2
7.770000E-8	2.103498E-2
7.775000E-8	2.160025E-2
7.780000E-8	2.220834E-2
7.785000E-8	2.280788E-2
7.790000E-8	2.334745E-2
7.795000E-8	2.386134E-2
7.800000E-8	2.437522E-2
7.805000E-8	2.482915E-2
7.810000E-8	2.517174E-2
7.815000E-8	2.543725E-2
7.820000E-8	2.564280E-2
7.825000E-8	2.574558E-2
7.830000E-8	2.571988E-2
7.835000E-8	2.559141E-2
7.840000E-8	2.537729E-2
7.845000E-8	2.506040E-2
7.850000E-8	2.466642E-2
7.855000E-8	2.417823E-2
7.860000E-8	2.361296E-2
7.865000E-8	2.301343E-2
7.870000E-8	2.239677E-2
7.875000E-8	2.174585E-2
7.880000E-8	2.106924E-2
7.885000E-8	2.042688E-2
7.890000E-8	1.987017E-2
7.895000E-8	1.939055E-2
7.900000E-8	1.896231E-2
7.905000E-8	1.861972E-2
7.910000E-8	1.837135E-2
7.915000E-8	1.820005E-2
7.920000E-8	1.814866E-2
7.925000E-8	1.822575E-2
7.930000E-8	1.838847E-2
7.935000E-8	1.861972E-2
7.940000E-8	1.893662E-2
7.945000E-8	1.932203E-2
7.950000E-8	1.975883E-2
7.955000E-8	2.026415E-2
7.960000E-8	2.080373E-2
7.965000E-8	2.139470E-2
7.970000E-8	2.199423E-2
7.975000E-8	2.257663E-2
7.980000E-8	2.315046E-2
7.985000E-8	2.374143E-2
7.990000E-8	2.428101E-2
7.995000E-8	2.471781E-2
8.000000E-8	2.509466E-2
8.005000E-8	2.540299E-2
8.010000E-8	2.555715E-2
8.015000E-8	2.557428E-2
8.020000E-8	2.547151E-2
8.025000E-8	2.524026E-2
8.030000E-8	2.485485E-2
8.035000E-8	2.434953E-2
8.040000E-8	2.371574E-2
8.045000E-8	2.299630E-2
8.050000E-8	2.225117E-2
8.055000E-8	2.151460E-2
8.060000E-8	2.076091E-2
8.065000E-8	2.005860E-2
8.070000E-8	1.945907E-2
8.075000E-8	1.891949E-2
8.080000E-8	1.842273E-2
8.085000E-8	1.805445E-2
8.090000E-8	1.782320E-2
8.095000E-8	1.770330E-2
8.100000E-8	1.772043E-2
8.105000E-8	1.785746E-2
8.110000E-8	1.807158E-2
8.115000E-8	1.834565E-2
8.120000E-8	1.868824E-2
8.125000E-8	1.907365E-2
8.130000E-8	1.945907E-2
8.135000E-8	1.982735E-2
8.140000E-8	2.018707E-2
8.145000E-8	2.050396E-2
8.150000E-8	2.078660E-2
8.155000E-8	2.103498E-2
8.160000E-8	2.124909E-2
8.165000E-8	2.148034E-2
8.170000E-8	2.175441E-2
8.175000E-8	2.202849E-2
8.180000E-8	2.226830E-2
8.185000E-8	2.253380E-2
8.190000E-8	2.284213E-2
8.195000E-8	2.313334E-2
8.200000E-8	2.338171E-2
8.205000E-8	2.361296E-2
8.210000E-8	2.380995E-2
8.215000E-8	2.391273E-2
8.220000E-8	2.390416E-2
8.225000E-8	2.377569E-2
8.230000E-8	2.356157E-2
8.235000E-8	2.325324E-2
8.240000E-8	2.279931E-2
8.245000E-8	2.227686E-2
8.250000E-8	2.175441E-2
8.255000E-8	2.118058E-2
8.260000E-8	2.051253E-2
8.265000E-8	1.986161E-2
8.270000E-8	1.929634E-2
8.275000E-8	1.878245E-2
8.280000E-8	1.835422E-2
8.285000E-8	1.804589E-2
8.290000E-8	1.780607E-2
8.295000E-8	1.762621E-2
8.300000E-8	1.756626E-2
8.305000E-8	1.760052E-2
8.310000E-8	1.771186E-2
8.315000E-8	1.790029E-2
8.320000E-8	1.814866E-2
8.325000E-8	1.843986E-2
8.330000E-8	1.884241E-2
8.335000E-8	1.930490E-2
8.340000E-8	1.977596E-2
8.345000E-8	2.028984E-2
8.350000E-8	2.088081E-2
8.355000E-8	2.148034E-2
8.360000E-8	2.201992E-2
8.365000E-8	2.254237E-2
8.370000E-8	2.304769E-2
8.375000E-8	2.347592E-2
8.380000E-8	2.379282E-2
8.385000E-8	2.397268E-2
8.390000E-8	2.403263E-2
8.395000E-8	2.398124E-2
8.400000E-8	2.378425E-2
8.405000E-8	2.344167E-2
8.410000E-8	2.297061E-2
8.415000E-8	2.241390E-2
8.420000E-8	2.179724E-2
8.425000E-8	2.120627E-2
8.430000E-8	2.063243E-2
8.435000E-8	2.000721E-2
8.440000E-8	1.936485E-2
8.445000E-8	1.882528E-2
8.450000E-8	1.836278E-2
8.455000E-8	1.793454E-2
8.460000E-8	1.758339E-2
8.465000E-8	1.734358E-2
8.470000E-8	1.712946E-2
8.475000E-8	1.696673E-2
8.480000E-8	1.690678E-2
8.485000E-8	1.692391E-2
8.490000E-8	1.701812E-2
8.495000E-8	1.718085E-2
8.500000E-8	1.738640E-2
8.505000E-8	1.766047E-2
8.510000E-8	1.803732E-2
8.515000E-8	1.848269E-2
8.520000E-8	1.892805E-2
8.525000E-8	1.939055E-2
8.530000E-8	1.987017E-2
8.535000E-8	2.032410E-2
8.540000E-8	2.076091E-2
8.545000E-8	2.120627E-2
8.550000E-8	2.157455E-2
8.555000E-8	2.183150E-2
8.560000E-8	2.204561E-2
8.565000E-8	2.219978E-2
8.570000E-8	2.225117E-2
8.575000E-8	2.223404E-2
8.580000E-8	2.215696E-2
8.585000E-8	2.200279E-2
8.590000E-8	2.178011E-2
8.595000E-8	2.151460E-2
8.600000E-8	2.120627E-2
8.605000E-8	2.083799E-2
8.610000E-8	2.044401E-2
8.615000E-8	2.003290E-2
8.620000E-8	1.961323E-2
8.625000E-8	1.921069E-2
8.630000E-8	1.879958E-2
8.635000E-8	1.837135E-2
8.640000E-8	1.802019E-2
8.645000E-8	1.773756E-2
8.650000E-8	1.747205E-2
8.655000E-8	1.723224E-2
8.660000E-8	1.709520E-2
8.665000E-8	1.706094E-2
8.670000E-8	1.707807E-2
8.675000E-8	1.712946E-2
8.680000E-8	1.722367E-2
8.685000E-8	1.736071E-2
8.690000E-8	1.754057E-2
8.695000E-8	1.769473E-2
8.700000E-8	1.784033E-2
8.705000E-8	1.802019E-2
8.710000E-8	1.820862E-2
8.715000E-8	1.837135E-2
8.720000E-8	1.854264E-2
8.725000E-8	1.877389E-2
8.730000E-8	1.902226E-2
8.735000E-8	1.930490E-2
8.740000E-8	1.965605E-2
8.745000E-8	2.000721E-2
8.750000E-8	2.034123E-2
8.755000E-8	2.069239E-2
8.760000E-8	2.104354E-2
8.765000E-8	2.130905E-2
8.770000E-8	2.148034E-2
8.775000E-8	2.158312E-2
8.780000E-8	2.156599E-2
8.785000E-8	2.141182E-2
8.790000E-8	2.118914E-2
8.795000E-8	2.088938E-2
8.800000E-8	2.048683E-2
8.805000E-8	2.002434E-2
8.810000E-8	1.951902E-2
8.815000E-8	1.897944E-2
8.820000E-8	1.847412E-2
8.825000E-8	1.802876E-2
8.830000E-8	1.760052E-2
8.835000E-8	1.717228E-2
8.840000E-8	1.682113E-2
8.845000E-8	1.658132E-2
8.850000E-8	1.641002E-2
8.855000E-8	1.627299E-2
8.860000E-8	1.617877E-2
8.865000E-8	1.620447E-2
8.870000E-8	1.632437E-2
8.875000E-8	1.649567E-2
8.880000E-8	1.669266E-2
8.885000E-8	1.696673E-2
8.890000E-8	1.727506E-2
8.895000E-8	1.759196E-2
8.900000E-8	1.794311E-2
8.905000E-8	1.831996E-2
8.910000E-8	1.866255E-2
8.915000E-8	1.898801E-2
8.920000E-8	1.932203E-2
8.925000E-8	1.960467E-2
8.930000E-8	1.984448E-2
8.935000E-8	2.010999E-2
8.940000E-8	2.032410E-2
8.945000E-8	2.046970E-2
8.950000E-8	2.058961E-2
8.955000E-8	2.068382E-2
8.960000E-8	2.065813E-2
8.965000E-8	2.055535E-2
8.970000E-8	2.042688E-2
8.975000E-8	2.022133E-2
8.980000E-8	1.987017E-2
8.985000E-8	1.944194E-2
8.990000E-8	1.898801E-2
8.995000E-8	1.848269E-2
9.000000E-8	1.796880E-2
9.005000E-8	1.754913E-2
9.010000E-8	1.718085E-2
9.015000E-8	1.682113E-2
9.020000E-8	1.651280E-2
9.025000E-8	1.633294E-2
9.030000E-8	1.623873E-2
9.035000E-8	1.621303E-2
9.040000E-8	1.624729E-2
9.045000E-8	1.632437E-2
9.050000E-8	1.643572E-2
9.055000E-8	1.658988E-2
9.060000E-8	1.677831E-2
9.065000E-8	1.694960E-2
9.070000E-8	1.709520E-2
9.075000E-8	1.725793E-2
9.080000E-8	1.742066E-2
9.085000E-8	1.754057E-2
9.090000E-8	1.766904E-2
9.095000E-8	1.784033E-2
9.100000E-8	1.801163E-2
9.105000E-8	1.814866E-2
9.110000E-8	1.833709E-2
9.115000E-8	1.858546E-2
9.120000E-8	1.883384E-2
9.125000E-8	1.905652E-2
9.130000E-8	1.930490E-2
9.135000E-8	1.955328E-2
9.140000E-8	1.973314E-2
9.145000E-8	1.986161E-2
9.150000E-8	1.993869E-2
9.155000E-8	1.993013E-2
9.160000E-8	1.986161E-2
9.165000E-8	1.973314E-2
9.170000E-8	1.951902E-2
9.175000E-8	1.921925E-2
9.180000E-8	1.891949E-2
9.185000E-8	1.864542E-2
9.190000E-8	1.835422E-2
9.195000E-8	1.805445E-2
9.200000E-8	1.780607E-2
9.205000E-8	1.759196E-2
9.210000E-8	1.738640E-2
9.215000E-8	1.719798E-2
9.220000E-8	1.700955E-2
9.225000E-8	1.682113E-2
9.230000E-8	1.663271E-2
9.235000E-8	1.643572E-2
9.240000E-8	1.622160E-2
9.245000E-8	1.601604E-2
9.250000E-8	1.584475E-2
9.255000E-8	1.575054E-2
9.260000E-8	1.575910E-2
9.265000E-8	1.585331E-2
9.270000E-8	1.600748E-2
9.275000E-8	1.620447E-2
9.280000E-8	1.651280E-2
9.285000E-8	1.688965E-2
9.290000E-8	1.730075E-2
9.295000E-8	1.772043E-2
9.300000E-8	1.814866E-2
9.305000E-8	1.854264E-2
9.310000E-8	1.887666E-2
9.315000E-8	1.915074E-2
9.320000E-8	1.933060E-2
9.325000E-8	1.942481E-2
9.330000E-8	1.946763E-2
9.335000E-8	1.943337E-2
9.340000E-8	1.930490E-2
9.345000E-8	1.909078E-2
9.350000E-8	1.883384E-2
9.355000E-8	1.859403E-2
9.360000E-8	1.834565E-2
9.365000E-8	1.806302E-2
9.370000E-8	1.776325E-2
9.375000E-8	1.748061E-2
9.380000E-8	1.722367E-2
9.385000E-8	1.697529E-2
9.390000E-8	1.671835E-2
9.395000E-8	1.647854E-2
9.400000E-8	1.627299E-2
9.405000E-8	1.610169E-2
9.410000E-8	1.593896E-2
9.415000E-8	1.577623E-2
9.420000E-8	1.563063E-2
9.425000E-8	1.550216E-2
9.430000E-8	1.539082E-2
9.435000E-8	1.533943E-2
9.440000E-8	1.535656E-2
9.445000E-8	1.540795E-2
9.450000E-8	1.549360E-2
9.455000E-8	1.564776E-2
9.460000E-8	1.583619E-2
9.465000E-8	1.602461E-2
9.470000E-8	1.624729E-2
9.475000E-8	1.650423E-2
9.480000E-8	1.677831E-2
9.485000E-8	1.705238E-2
9.490000E-8	1.732645E-2
9.495000E-8	1.756626E-2
9.500000E-8	1.772899E-2
9.505000E-8	1.784890E-2
9.510000E-8	1.796880E-2
9.515000E-8	1.805445E-2
9.520000E-8	1.808014E-2
9.525000E-8	1.807158E-2
9.530000E-8	1.803732E-2
9.535000E-8	1.795167E-2
9.540000E-8	1.781464E-2
9.545000E-8	1.762621E-2
9.550000E-8	1.739497E-2
9.555000E-8	1.716372E-2
9.560000E-8	1.692391E-2
9.565000E-8	1.667553E-2
9.570000E-8	1.645285E-2
9.575000E-8	1.621303E-2
9.580000E-8	1.593040E-2
9.585000E-8	1.567346E-2
9.590000E-8	1.552786E-2
9.595000E-8	1.540795E-2
9.600000E-8	1.527091E-2
9.605000E-8	1.521952E-2
9.610000E-8	1.524522E-2
9.615000E-8	1.524522E-2
9.620000E-8	1.523665E-2
9.625000E-8	1.527948E-2
9.630000E-8	1.532230E-2
9.635000E-8	1.535656E-2
9.640000E-8	1.543364E-2
9.645000E-8	1.549360E-2
9.650000E-8	1.551073E-2
9.655000E-8	1.557924E-2
9.660000E-8	1.574197E-2
9.665000E-8	1.591327E-2
9.670000E-8	1.610169E-2
9.675000E-8	1.632437E-2
9.680000E-8	1.657275E-2
9.685000E-8	1.682969E-2
9.690000E-8	1.708664E-2
9.695000E-8	1.732645E-2
9.700000E-8	1.751487E-2
9.705000E-8	1.762621E-2
9.710000E-8	1.770330E-2
9.715000E-8	1.775468E-2
9.720000E-8	1.773756E-2
9.725000E-8	1.760908E-2
9.730000E-8	1.742066E-2
9.735000E-8	1.725793E-2
9.740000E-8	1.708664E-2
9.745000E-8	1.689821E-2
9.750000E-8	1.670122E-2
9.755000E-8	1.648710E-2
9.760000E-8	1.624729E-2
9.765000E-8	1.602461E-2
9.770000E-8	1.582762E-2
9.775000E-8	1.560494E-2
9.780000E-8	1.536513E-2
9.785000E-8	1.518527E-2
9.790000E-8	1.505679E-2
9.795000E-8	1.497115E-2
9.800000E-8	1.491976E-2
9.805000E-8	1.489407E-2
9.810000E-8	1.488550E-2
9.815000E-8	1.492832E-2
9.820000E-8	1.503967E-2
9.825000E-8	1.515957E-2
9.830000E-8	1.527948E-2
9.835000E-8	1.541651E-2
9.840000E-8	1.557924E-2
9.845000E-8	1.575910E-2
9.850000E-8	1.593896E-2
9.855000E-8	1.611882E-2
9.860000E-8	1.628155E-2
9.865000E-8	1.641859E-2
9.870000E-8	1.653849E-2
9.875000E-8	1.663271E-2
9.880000E-8	1.670979E-2
9.885000E-8	1.676974E-2
9.890000E-8	1.683826E-2
9.895000E-8	1.689821E-2
9.900000E-8	1.694104E-2
9.905000E-8	1.697529E-2
9.910000E-8	1.700099E-2
9.915000E-8	1.699242E-2
9.920000E-8	1.694104E-2
9.925000E-8	1.685539E-2
9.930000E-8	1.676118E-2
9.935000E-8	1.662414E-2
9.940000E-8	1.640146E-2
9.945000E-8	1.609313E-2
9.950000E-8	1.575054E-2
9.955000E-8	1.540795E-2
9.960000E-8	1.502254E-2
9.965000E-8	1.464569E-2
9.970000E-8	1.434592E-2
9.975000E-8	1.414037E-2
9.980000E-8	1.399477E-2
9.985000E-8	1.394338E-2
9.990000E-8	1.398620E-2
9.995000E-8	1.410611E-2
1.000000E-7	1.428597E-2
1.000500E-7	1.450865E-2
1.001000E-7	1.474846E-2
1.001500E-7	1.498828E-2
1.002000E-7	1.522809E-2
1.002500E-7	1.547647E-2
1.003000E-7	1.569915E-2
1.003500E-7	1.588757E-2
1.004000E-7	1.600748E-2
1.004500E-7	1.608456E-2
1.005000E-7	1.616165E-2
1.005500E-7	1.623873E-2
1.006000E-7	1.631581E-2
1.006500E-7	1.638433E-2
1.007000E-7	1.645285E-2
1.007500E-7	1.649567E-2
1.008000E-7	1.652993E-2
1.008500E-7	1.655562E-2
1.009000E-7	1.654706E-2
1.009500E-7	1.649567E-2
1.010000E-7	1.642715E-2
1.010500E-7	1.631581E-2
1.011000E-7	1.617021E-2
1.011500E-7	1.599892E-2
1.012000E-7	1.580193E-2
1.012500E-7	1.560494E-2
1.013000E-7	1.539938E-2
1.013500E-7	1.517670E-2
1.014000E-7	1.494545E-2
1.014500E-7	1.472277E-2
1.015000E-7	1.451722E-2
1.015500E-7	1.432023E-2
1.016000E-7	1.413180E-2
1.016500E-7	1.398620E-2
1.017000E-7	1.387486E-2
1.017500E-7	1.378065E-2
1.018000E-7	1.366931E-2
1.018500E-7	1.359223E-2
1.019000E-7	1.360079E-2
1.019500E-7	1.369500E-2
1.020000E-7	1.378921E-2
1.020500E-7	1.389199E-2
1.021000E-7	1.406329E-2
1.021500E-7	1.428597E-2
1.022000E-7	1.451722E-2
1.022500E-7	1.476559E-2
1.023000E-7	1.503967E-2
1.023500E-7	1.532230E-2
1.024000E-7	1.558781E-2
1.024500E-7	1.582762E-2
1.025000E-7	1.602461E-2
1.025500E-7	1.618734E-2
1.026000E-7	1.629868E-2
1.026500E-7	1.636720E-2
1.027000E-7	1.640146E-2
1.027500E-7	1.640146E-2
1.028000E-7	1.634150E-2
1.028500E-7	1.624729E-2
1.029000E-7	1.616165E-2
1.029500E-7	1.604174E-2
1.030000E-7	1.584475E-2
1.030500E-7	1.563063E-2
1.031000E-7	1.545077E-2
1.031500E-7	1.523665E-2
1.032000E-7	1.497971E-2
1.032500E-7	1.473134E-2
1.033000E-7	1.454291E-2
1.033500E-7	1.433736E-2
1.034000E-7	1.408898E-2
1.034500E-7	1.390056E-2
1.035000E-7	1.380634E-2
1.035500E-7	1.374639E-2
1.036000E-7	1.369500E-2
1.036500E-7	1.368644E-2
1.037000E-7	1.372926E-2
1.037500E-7	1.382347E-2
1.038000E-7	1.394338E-2
1.038500E-7	1.407185E-2
1.039000E-7	1.417463E-2
1.039500E-7	1.427740E-2
1.040000E-7	1.438875E-2
1.040500E-7	1.450009E-2
1.041000E-7	1.460286E-2
1.041500E-7	1.471421E-2
1.042000E-7	1.478272E-2
1.042500E-7	1.483411E-2
1.043000E-7	1.491119E-2
1.043500E-7	1.498828E-2
1.044000E-7	1.503110E-2
1.044500E-7	1.509105E-2
1.045000E-7	1.514244E-2
1.045500E-7	1.511675E-2
1.046000E-7	1.504823E-2
1.046500E-7	1.499684E-2
1.047000E-7	1.491976E-2
1.047500E-7	1.477416E-2
1.048000E-7	1.459430E-2
1.048500E-7	1.446583E-2
1.049000E-7	1.436305E-2
1.049500E-7	1.426884E-2
1.050000E-7	1.420032E-2
1.050500E-7	1.414037E-2
1.051000E-7	1.408042E-2
1.051500E-7	1.405472E-2
1.052000E-7	1.405472E-2
1.052500E-7	1.406329E-2
1.053000E-7	1.407185E-2
1.053500E-7	1.407185E-2
1.054000E-7	1.404616E-2
1.054500E-7	1.397764E-2
1.055000E-7	1.391769E-2
1.055500E-7	1.386630E-2
1.056000E-7	1.382347E-2
1.056500E-7	1.375496E-2
1.057000E-7	1.371213E-2
1.057500E-7	1.370357E-2
1.058000E-7	1.371213E-2
1.058500E-7	1.372926E-2
1.059000E-7	1.376352E-2
1.059500E-7	1.380634E-2
1.060000E-7	1.389199E-2
1.060500E-7	1.398620E-2
1.061000E-7	1.407185E-2
1.061500E-7	1.415750E-2
1.062000E-7	1.425171E-2
1.062500E-7	1.432879E-2
1.063000E-7	1.436305E-2
1.063500E-7	1.437162E-2
1.064000E-7	1.438875E-2
1.064500E-7	1.438875E-2
1.065000E-7	1.435449E-2
1.065500E-7	1.430310E-2
1.066000E-7	1.427740E-2
1.066500E-7	1.425171E-2
1.067000E-7	1.420032E-2
1.067500E-7	1.415750E-2
1.068000E-7	1.417463E-2
1.068500E-7	1.419176E-2
1.069000E-7	1.414893E-2
1.069500E-7	1.408898E-2
1.070000E-7	1.405472E-2
1.070500E-7	1.401190E-2
1.071000E-7	1.390912E-2
1.071500E-7	1.380634E-2
1.072000E-7	1.369500E-2
1.072500E-7	1.354084E-2
1.073000E-7	1.332672E-2
1.073500E-7	1.313830E-2
1.074000E-7	1.300982E-2
1.074500E-7	1.292418E-2
1.075000E-7	1.285566E-2
1.075500E-7	1.281284E-2
1.076000E-7	1.282140E-2
1.076500E-7	1.287279E-2
1.077000E-7	1.297557E-2
1.077500E-7	1.309547E-2
1.078000E-7	1.320681E-2
1.078500E-7	1.334385E-2
1.079000E-7	1.352371E-2
1.079500E-7	1.371213E-2
1.080000E-7	1.388343E-2
1.080500E-7	1.404616E-2
1.081000E-7	1.418319E-2
1.081500E-7	1.427740E-2
1.082000E-7	1.434592E-2
1.082500E-7	1.440588E-2
1.083000E-7	1.440588E-2
1.083500E-7	1.437162E-2
1.084000E-7	1.432879E-2
1.084500E-7	1.425171E-2
1.085000E-7	1.409755E-2
1.085500E-7	1.395194E-2
1.086000E-7	1.385773E-2
1.086500E-7	1.377209E-2
1.087000E-7	1.367787E-2
1.087500E-7	1.360079E-2
1.088000E-7	1.352371E-2
1.088500E-7	1.344663E-2
1.089000E-7	1.337811E-2
1.089500E-7	1.328390E-2
1.090000E-7	1.317255E-2
1.090500E-7	1.306978E-2
1.091000E-7	1.298413E-2
1.091500E-7	1.289848E-2
1.092000E-7	1.282997E-2
1.092500E-7	1.280427E-2
1.093000E-7	1.279571E-2
1.093500E-7	1.280427E-2
1.094000E-7	1.284709E-2
1.094500E-7	1.292418E-2
1.095000E-7	1.300126E-2
1.095500E-7	1.306978E-2
1.096000E-7	1.312117E-2
1.096500E-7	1.318968E-2
1.097000E-7	1.328390E-2
1.097500E-7	1.334385E-2
1.098000E-7	1.333528E-2
1.098500E-7	1.336098E-2
1.099000E-7	1.343806E-2
1.099500E-7	1.348945E-2
1.100000E-7	1.352371E-2
1.100500E-7	1.361792E-2
1.101000E-7	1.372926E-2
1.101500E-7	1.379778E-2
1.102000E-7	1.384917E-2
1.102500E-7	1.390912E-2
1.103000E-7	1.395194E-2
1.103500E-7	1.396051E-2
1.104000E-7	1.394338E-2
1.104500E-7	1.389199E-2
1.105000E-7	1.380634E-2
1.105500E-7	1.370357E-2
1.106000E-7	1.357510E-2
1.106500E-7	1.343806E-2
1.107000E-7	1.330103E-2
1.107500E-7	1.315542E-2
1.108000E-7	1.300126E-2
1.108500E-7	1.288135E-2
1.109000E-7	1.278714E-2
1.109500E-7	1.268436E-2
1.110000E-7	1.257302E-2
1.110500E-7	1.253876E-2
1.111000E-7	1.257302E-2
1.111500E-7	1.257302E-2
1.112000E-7	1.253020E-2
1.112500E-7	1.249594E-2
1.113000E-7	1.247881E-2
1.113500E-7	1.247025E-2
1.114000E-7	1.246168E-2
1.114500E-7	1.244455E-2
1.115000E-7	1.241029E-2
1.115500E-7	1.235891E-2
1.116000E-7	1.231608E-2
1.116500E-7	1.231608E-2
1.117000E-7	1.233321E-2
1.117500E-7	1.235891E-2
1.118000E-7	1.242742E-2
1.118500E-7	1.253876E-2
1.119000E-7	1.264154E-2
1.119500E-7	1.273575E-2
1.120000E-7	1.285566E-2
1.120500E-7	1.300126E-2
1.121000E-7	1.310404E-2
1.121500E-7	1.317255E-2
1.122000E-7	1.325820E-2
1.122500E-7	1.335241E-2
1.123000E-7	1.337811E-2
1.123500E-7	1.336954E-2
1.124000E-7	1.335241E-2
1.124500E-7	1.331815E-2
1.125000E-7	1.324964E-2
1.125500E-7	1.313830E-2
1.126000E-7	1.300126E-2
1.126500E-7	1.286422E-2
1.127000E-7	1.273575E-2
1.127500E-7	1.257302E-2
1.128000E-7	1.240173E-2
1.128500E-7	1.226469E-2
1.129000E-7	1.215335E-2
1.129500E-7	1.205057E-2
1.130000E-7	1.196493E-2
1.130500E-7	1.192210E-2
1.131000E-7	1.193067E-2
1.131500E-7	1.197349E-2
1.132000E-7	1.203345E-2
1.132500E-7	1.211053E-2
1.133000E-7	1.219618E-2
1.133500E-7	1.225613E-2
1.134000E-7	1.228182E-2
1.134500E-7	1.229039E-2
1.135000E-7	1.232465E-2
1.135500E-7	1.235891E-2
1.136000E-7	1.236747E-2
1.136500E-7	1.235034E-2
1.137000E-7	1.236747E-2
1.137500E-7	1.242742E-2
1.138000E-7	1.246168E-2
1.138500E-7	1.248738E-2
1.139000E-7	1.254733E-2
1.139500E-7	1.259015E-2
1.140000E-7	1.265011E-2
1.140500E-7	1.274432E-2
1.141000E-7	1.282997E-2
1.141500E-7	1.283853E-2
1.142000E-7	1.284709E-2
1.142500E-7	1.289848E-2
1.143000E-7	1.291561E-2
1.143500E-7	1.289848E-2
1.144000E-7	1.287279E-2
1.144500E-7	1.282997E-2
1.145000E-7	1.274432E-2
1.145500E-7	1.266724E-2
1.146000E-7	1.264154E-2
1.146500E-7	1.260728E-2
1.147000E-7	1.257302E-2
1.147500E-7	1.254733E-2
1.148000E-7	1.251307E-2
1.148500E-7	1.244455E-2
1.149000E-7	1.236747E-2
1.149500E-7	1.229039E-2
1.150000E-7	1.223043E-2
1.150500E-7	1.218761E-2
1.151000E-7	1.212766E-2
1.151500E-7	1.202488E-2
1.152000E-7	1.196493E-2
1.152500E-7	1.196493E-2
1.153000E-7	1.193067E-2
1.153500E-7	1.181933E-2
1.154000E-7	1.173368E-2
1.154500E-7	1.169086E-2
1.155000E-7	1.167373E-2
1.155500E-7	1.167373E-2
1.156000E-7	1.170799E-2
1.156500E-7	1.176794E-2
1.157000E-7	1.182789E-2
1.157500E-7	1.188784E-2
1.158000E-7	1.193067E-2
1.158500E-7	1.202488E-2
1.159000E-7	1.215335E-2
1.159500E-7	1.224756E-2
1.160000E-7	1.231608E-2
1.160500E-7	1.238460E-2
1.161000E-7	1.241029E-2
1.161500E-7	1.238460E-2
1.162000E-7	1.235034E-2
1.162500E-7	1.229895E-2
1.163000E-7	1.219618E-2
1.163500E-7	1.208483E-2
1.164000E-7	1.199062E-2
1.164500E-7	1.189641E-2
1.165000E-7	1.180220E-2
1.165500E-7	1.175081E-2
1.166000E-7	1.174224E-2
1.166500E-7	1.177650E-2
1.167000E-7	1.181933E-2
1.167500E-7	1.181933E-2
1.168000E-7	1.181076E-2
1.168500E-7	1.185359E-2
1.169000E-7	1.189641E-2
1.169500E-7	1.188784E-2
1.170000E-7	1.185359E-2
1.170500E-7	1.182789E-2
1.171000E-7	1.182789E-2
1.171500E-7	1.184502E-2
1.172000E-7	1.183646E-2
1.172500E-7	1.178507E-2
1.173000E-7	1.175081E-2
1.173500E-7	1.176794E-2
1.174000E-7	1.177650E-2
1.174500E-7	1.176794E-2
1.175000E-7	1.179363E-2
1.175500E-7	1.181933E-2
1.176000E-7	1.179363E-2
1.176500E-7	1.180220E-2
1.177000E-7	1.186215E-2
1.177500E-7	1.188784E-2
1.178000E-7	1.185359E-2
1.178500E-7	1.181933E-2
1.179000E-7	1.178507E-2
1.179500E-7	1.173368E-2
1.180000E-7	1.169086E-2
1.180500E-7	1.163947E-2
1.181000E-7	1.158808E-2
1.181500E-7	1.157095E-2
1.182000E-7	1.157095E-2
1.182500E-7	1.157095E-2
1.183000E-7	1.158808E-2
1.183500E-7	1.162234E-2
1.184000E-7	1.168229E-2
1.184500E-7	1.175081E-2
1.185000E-7	1.180220E-2
1.185500E-7	1.181076E-2
1.186000E-7	1.181076E-2
1.186500E-7	1.182789E-2
1.187000E-7	1.179363E-2
1.187500E-7	1.171655E-2
1.188000E-7	1.162234E-2
1.188500E-7	1.150243E-2
1.189000E-7	1.135683E-2
1.189500E-7	1.121980E-2
1.190000E-7	1.111702E-2
1.190500E-7	1.100568E-2
1.191000E-7	1.090290E-2
1.191500E-7	1.083438E-2
1.192000E-7	1.079156E-2
1.192500E-7	1.076587E-2
1.193000E-7	1.077443E-2
1.193500E-7	1.081725E-2
1.194000E-7	1.085151E-2
1.194500E-7	1.089434E-2
1.195000E-7	1.096285E-2
1.195500E-7	1.101424E-2
1.196000E-7	1.106563E-2
1.196500E-7	1.110845E-2
1.197000E-7	1.111702E-2
1.197500E-7	1.112558E-2
1.198000E-7	1.113415E-2
1.198500E-7	1.110845E-2
1.199000E-7	1.104850E-2
1.199500E-7	1.102281E-2
1.200000E-7	1.101424E-2
1.200500E-7	1.096285E-2
1.201000E-7	1.091147E-2
1.201500E-7	1.089434E-2
1.202000E-7	1.088577E-2
1.202500E-7	1.086008E-2
1.203000E-7	1.085151E-2
1.203500E-7	1.084295E-2
1.204000E-7	1.080869E-2
1.204500E-7	1.077443E-2
1.205000E-7	1.079156E-2
1.205500E-7	1.083438E-2
1.206000E-7	1.086008E-2
1.206500E-7	1.087721E-2
1.207000E-7	1.092860E-2
1.207500E-7	1.101424E-2
1.208000E-7	1.109133E-2
1.208500E-7	1.115128E-2
1.209000E-7	1.121980E-2
1.209500E-7	1.128831E-2
1.210000E-7	1.133114E-2
1.210500E-7	1.134827E-2
1.211000E-7	1.135683E-2
1.211500E-7	1.134827E-2
1.212000E-7	1.132257E-2
1.212500E-7	1.130544E-2
1.213000E-7	1.129688E-2
1.213500E-7	1.127975E-2
1.214000E-7	1.124549E-2
1.214500E-7	1.123693E-2
1.215000E-7	1.127118E-2
1.215500E-7	1.133970E-2
1.216000E-7	1.138253E-2
1.216500E-7	1.139109E-2
1.217000E-7	1.137396E-2
1.217500E-7	1.136540E-2
1.218000E-7	1.136540E-2
1.218500E-7	1.134827E-2
1.219000E-7	1.127118E-2
1.219500E-7	1.115128E-2
1.220000E-7	1.104850E-2
1.220500E-7	1.093716E-2
1.221000E-7	1.077443E-2
1.221500E-7	1.062026E-2
1.222000E-7	1.050892E-2
1.222500E-7	1.038902E-2
1.223000E-7	1.027768E-2
1.223500E-7	1.023485E-2
1.224000E-7	1.023485E-2
1.224500E-7	1.024342E-2
1.225000E-7	1.029481E-2
1.225500E-7	1.040615E-2
1.226000E-7	1.050892E-2
1.226500E-7	1.056031E-2
1.227000E-7	1.065452E-2
1.227500E-7	1.078299E-2
1.228000E-7	1.086008E-2
1.228500E-7	1.085151E-2
1.229000E-7	1.080012E-2
1.229500E-7	1.076587E-2
1.230000E-7	1.074874E-2
1.230500E-7	1.072304E-2
1.231000E-7	1.067165E-2
1.231500E-7	1.061170E-2
1.232000E-7	1.056031E-2
1.232500E-7	1.055175E-2
1.233000E-7	1.058601E-2
1.233500E-7	1.063739E-2
1.234000E-7	1.070591E-2
1.234500E-7	1.078299E-2
1.235000E-7	1.083438E-2
1.235500E-7	1.087721E-2
1.236000E-7	1.092003E-2
1.236500E-7	1.095429E-2
1.237000E-7	1.092003E-2
1.237500E-7	1.084295E-2
1.238000E-7	1.078299E-2
1.238500E-7	1.070591E-2
1.239000E-7	1.059457E-2
1.239500E-7	1.048323E-2
1.240000E-7	1.039758E-2
1.240500E-7	1.032050E-2
1.241000E-7	1.025198E-2
1.241500E-7	1.020059E-2
1.242000E-7	1.017490E-2
1.242500E-7	1.015777E-2
1.243000E-7	1.018346E-2
1.243500E-7	1.026911E-2
1.244000E-7	1.036332E-2
1.244500E-7	1.041471E-2
1.245000E-7	1.044897E-2
1.245500E-7	1.048323E-2
1.246000E-7	1.052605E-2
1.246500E-7	1.053462E-2
1.247000E-7	1.048323E-2
1.247500E-7	1.041471E-2
1.248000E-7	1.036332E-2
1.248500E-7	1.031193E-2
1.249000E-7	1.024342E-2
1.249500E-7	1.019203E-2
1.250000E-7	1.015777E-2
1.250500E-7	1.011495E-2
1.251000E-7	1.008069E-2
1.251500E-7	1.008069E-2
1.252000E-7	1.010638E-2
1.252500E-7	1.014920E-2
1.253000E-7	1.020059E-2
1.253500E-7	1.026911E-2
1.254000E-7	1.033763E-2
1.254500E-7	1.038045E-2
1.255000E-7	1.039758E-2
1.255500E-7	1.041471E-2
1.256000E-7	1.040615E-2
1.256500E-7	1.038045E-2
1.257000E-7	1.035476E-2
1.257500E-7	1.033763E-2
1.258000E-7	1.026911E-2
1.258500E-7	1.014064E-2
1.259000E-7	1.002073E-2
1.259500E-7	9.926522E-3
1.260000E-7	9.832310E-3
1.260500E-7	9.763792E-3
1.261000E-7	9.720968E-3
1.261500E-7	9.678145E-3
1.262000E-7	9.643886E-3
1.262500E-7	9.661015E-3
1.263000E-7	9.712404E-3
1.263500E-7	9.780921E-3
1.264000E-7	9.858004E-3
1.264500E-7	9.926522E-3
1.265000E-7	9.977910E-3
1.265500E-7	1.002073E-2
1.266000E-7	1.003786E-2
1.266500E-7	1.005499E-2
1.267000E-7	1.008069E-2
1.267500E-7	1.009782E-2
1.268000E-7	1.008069E-2
1.268500E-7	1.005499E-2
1.269000E-7	1.006356E-2
1.269500E-7	1.008069E-2
1.270000E-7	1.005499E-2
1.270500E-7	1.002073E-2
1.271000E-7	1.002930E-2
1.271500E-7	1.003786E-2
1.272000E-7	1.004643E-2
1.272500E-7	1.005499E-2
1.273000E-7	1.006356E-2
1.273500E-7	1.007212E-2
1.274000E-7	1.005499E-2
1.274500E-7	1.002930E-2
1.275000E-7	9.977910E-3
1.275500E-7	9.926522E-3
1.276000E-7	9.883698E-3
1.276500E-7	9.849439E-3
1.277000E-7	9.840875E-3
1.277500E-7	9.815180E-3
1.278000E-7	9.772357E-3
1.278500E-7	9.746663E-3
1.279000E-7	9.729533E-3
1.279500E-7	9.695274E-3
1.280000E-7	9.678145E-3
1.280500E-7	9.678145E-3
1.281000E-7	9.695274E-3
1.281500E-7	9.720968E-3
1.282000E-7	9.755227E-3
1.282500E-7	9.780921E-3
1.283000E-7	9.806616E-3
1.283500E-7	9.815180E-3
1.284000E-7	9.806616E-3
1.284500E-7	9.798051E-3
1.285000E-7	9.789486E-3
1.285500E-7	9.772357E-3
1.286000E-7	9.738098E-3
1.286500E-7	9.712404E-3
1.287000E-7	9.695274E-3
1.287500E-7	9.661015E-3
1.288000E-7	9.609627E-3
1.288500E-7	9.566803E-3
1.289000E-7	9.541109E-3
1.289500E-7	9.515415E-3
1.290000E-7	9.472591E-3
1.290500E-7	9.429768E-3
1.291000E-7	9.438332E-3
1.291500E-7	9.472591E-3
1.292000E-7	9.498285E-3
1.292500E-7	9.523980E-3
1.293000E-7	9.566803E-3
1.293500E-7	9.601062E-3
1.294000E-7	9.643886E-3
1.294500E-7	9.720968E-3
1.295000E-7	9.772357E-3
1.295500E-7	9.763792E-3
1.296000E-7	9.720968E-3
1.296500E-7	9.661015E-3
1.297000E-7	9.566803E-3
1.297500E-7	9.472591E-3
1.298000E-7	9.386944E-3
1.298500E-7	9.284167E-3
1.299000E-7	9.181390E-3
1.299500E-7	9.087178E-3
1.300000E-7	9.001531E-3
1.300500E-7	8.933013E-3
1.301000E-7	8.924448E-3
1.301500E-7	8.941578E-3
1.302000E-7	8.975837E-3
1.302500E-7	9.044355E-3
1.303000E-7	9.112873E-3
1.303500E-7	9.164261E-3
1.304000E-7	9.224214E-3
1.304500E-7	9.275602E-3
1.305000E-7	9.318426E-3
1.305500E-7	9.361250E-3
1.306000E-7	9.412638E-3
1.306500E-7	9.438332E-3
1.307000E-7	9.464026E-3
1.307500E-7	9.506850E-3
1.308000E-7	9.541109E-3
1.308500E-7	9.558238E-3
1.309000E-7	9.558238E-3
1.309500E-7	9.583933E-3
1.310000E-7	9.618192E-3
1.310500E-7	9.609627E-3
1.311000E-7	9.592497E-3
1.311500E-7	9.583933E-3
1.312000E-7	9.549674E-3
1.312500E-7	9.489721E-3
1.313000E-7	9.438332E-3
1.313500E-7	9.412638E-3
1.314000E-7	9.386944E-3
1.314500E-7	9.352685E-3
1.315000E-7	9.318426E-3
1.315500E-7	9.292732E-3
1.316000E-7	9.258473E-3
1.316500E-7	9.232779E-3
1.317000E-7	9.215649E-3
1.317500E-7	9.215649E-3
1.318000E-7	9.198520E-3
1.318500E-7	9.147131E-3
1.319000E-7	9.061484E-3
1.319500E-7	9.010096E-3
1.320000E-7	8.975837E-3
1.320500E-7	8.941578E-3
1.321000E-7	8.933013E-3
1.321500E-7	8.958707E-3
1.322000E-7	8.975837E-3
1.322500E-7	9.001531E-3
1.323000E-7	9.087178E-3
1.323500E-7	9.147131E-3
1.324000E-7	9.130002E-3
1.324500E-7	9.112873E-3
1.325000E-7	9.138567E-3
1.325500E-7	9.078614E-3
1.326000E-7	8.950143E-3
1.326500E-7	8.855931E-3
1.327000E-7	8.761719E-3
1.327500E-7	8.607553E-3
1.328000E-7	8.444824E-3
1.328500E-7	8.342047E-3
1.329000E-7	8.239270E-3
1.329500E-7	8.162187E-3
1.330000E-7	8.170752E-3
1.330500E-7	8.222141E-3
1.331000E-7	8.247835E-3
1.331500E-7	8.290658E-3
1.332000E-7	8.367741E-3
1.332500E-7	8.427694E-3
1.333000E-7	8.470518E-3
1.333500E-7	8.504777E-3
1.334000E-7	8.487647E-3
1.334500E-7	8.461953E-3
1.335000E-7	8.479082E-3
1.335500E-7	8.487647E-3
1.336000E-7	8.453388E-3
1.336500E-7	8.470518E-3
1.337000E-7	8.547600E-3
1.337500E-7	8.590424E-3
1.338000E-7	8.590424E-3
1.338500E-7	8.633248E-3
1.339000E-7	8.701765E-3
1.339500E-7	8.761719E-3
1.340000E-7	8.830236E-3
1.340500E-7	8.881625E-3
1.341000E-7	8.855931E-3
1.341500E-7	8.821672E-3
1.342000E-7	8.813107E-3
1.342500E-7	8.795978E-3
1.343000E-7	8.753154E-3
1.343500E-7	8.710330E-3
1.344000E-7	8.650377E-3
1.344500E-7	8.573295E-3
1.345000E-7	8.521906E-3
1.345500E-7	8.470518E-3
1.346000E-7	8.410565E-3
1.346500E-7	8.376306E-3
1.347000E-7	8.393435E-3
1.347500E-7	8.419129E-3
1.348000E-7	8.436259E-3
1.348500E-7	8.504777E-3
1.349000E-7	8.598989E-3
1.349500E-7	8.710330E-3
1.350000E-7	8.804542E-3
1.350500E-7	8.890190E-3
1.351000E-7	8.950143E-3
1.351500E-7	8.967272E-3
1.352000E-7	8.967272E-3
1.352500E-7	8.941578E-3
1.353000E-7	8.855931E-3
1.353500E-7	8.727460E-3
1.354000E-7	8.607553E-3
1.354500E-7	8.504777E-3
1.355000E-7	8.393435E-3
1.355500E-7	8.342047E-3
1.356000E-7	8.376306E-3
1.356500E-7	8.436259E-3
1.357000E-7	8.479082E-3
1.357500E-7	8.539036E-3
1.358000E-7	8.616118E-3
1.358500E-7	8.701765E-3
1.359000E-7	8.778848E-3
1.359500E-7	8.813107E-3
1.360000E-7	8.804542E-3
1.360500E-7	8.787413E-3
1.361000E-7	8.770283E-3
1.361500E-7	8.684636E-3
1.362000E-7	8.590424E-3
1.362500E-7	8.556165E-3
1.363000E-7	8.504777E-3
1.363500E-7	8.410565E-3
1.364000E-7	8.324917E-3
1.364500E-7	8.290658E-3
1.365000E-7	8.256400E-3
1.365500E-7	8.187882E-3
1.366000E-7	8.127929E-3
1.366500E-7	8.085105E-3
1.367000E-7	8.085105E-3
1.367500E-7	8.102234E-3
1.368000E-7	8.102234E-3
1.368500E-7	8.102234E-3
1.369000E-7	8.145058E-3
1.369500E-7	8.196446E-3
1.370000E-7	8.239270E-3
1.370500E-7	8.299223E-3
1.371000E-7	8.419129E-3
1.371500E-7	8.530471E-3
1.372000E-7	8.564730E-3
1.372500E-7	8.573295E-3
1.373000E-7	8.607553E-3
1.373500E-7	8.641812E-3
1.374000E-7	8.624683E-3
1.374500E-7	8.581859E-3
1.375000E-7	8.513341E-3
1.375500E-7	8.419129E-3
1.376000E-7	8.342047E-3
1.376500E-7	8.299223E-3
1.377000E-7	8.239270E-3
1.377500E-7	8.145058E-3
1.378000E-7	8.059411E-3
1.378500E-7	7.990893E-3
1.379000E-7	7.930940E-3
1.379500E-7	7.913810E-3
1.380000E-7	7.956634E-3
1.380500E-7	8.033717E-3
1.381000E-7	8.127929E-3
1.381500E-7	8.230705E-3
1.382000E-7	8.333482E-3
1.382500E-7	8.436259E-3
1.383000E-7	8.513341E-3
1.383500E-7	8.556165E-3
1.384000E-7	8.539036E-3
1.384500E-7	8.504777E-3
1.385000E-7	8.444824E-3
1.385500E-7	8.376306E-3
1.386000E-7	8.307788E-3
1.386500E-7	8.239270E-3
1.387000E-7	8.179317E-3
1.387500E-7	8.110799E-3
1.388000E-7	8.042281E-3
1.388500E-7	7.999458E-3
1.389000E-7	7.990893E-3
1.389500E-7	7.999458E-3
1.390000E-7	7.982328E-3
1.390500E-7	7.939505E-3
1.391000E-7	7.905246E-3
1.391500E-7	7.888116E-3
1.392000E-7	7.853857E-3
1.392500E-7	7.802469E-3
1.393000E-7	7.751080E-3
1.393500E-7	7.725386E-3
1.394000E-7	7.742516E-3
1.394500E-7	7.811034E-3
1.395000E-7	7.879551E-3
1.395500E-7	7.939505E-3
1.396000E-7	8.025152E-3
1.396500E-7	8.136493E-3
1.397000E-7	8.187882E-3
1.397500E-7	8.205011E-3
1.398000E-7	8.273529E-3
1.398500E-7	8.359176E-3
1.399000E-7	8.393435E-3
1.399500E-7	8.427694E-3
1.400000E-7	8.479082E-3
1.400500E-7	8.487647E-3
1.401000E-7	8.470518E-3
1.401500E-7	8.453388E-3
1.402000E-7	8.419129E-3
1.402500E-7	8.384870E-3
1.403000E-7	8.367741E-3
1.403500E-7	8.290658E-3
1.404000E-7	8.205011E-3
1.404500E-7	8.187882E-3
1.405000E-7	8.170752E-3
1.405500E-7	8.110799E-3
1.406000E-7	8.059411E-3
1.406500E-7	8.059411E-3
1.407000E-7	8.067975E-3
1.407500E-7	8.093670E-3
1.408000E-7	8.162187E-3
1.408500E-7	8.179317E-3
1.409000E-7	8.162187E-3
1.409500E-7	8.162187E-3
1.410000E-7	8.162187E-3
1.410500E-7	8.127929E-3
1.411000E-7	8.102234E-3
1.411500E-7	8.067975E-3
1.412000E-7	7.999458E-3
1.412500E-7	7.965199E-3
1.413000E-7	7.973763E-3
1.413500E-7	7.973763E-3
1.414000E-7	7.982328E-3
1.414500E-7	8.008022E-3
1.415000E-7	8.025152E-3
1.415500E-7	8.025152E-3
1.416000E-7	8.016587E-3
1.416500E-7	8.025152E-3
1.417000E-7	7.999458E-3
1.417500E-7	7.939505E-3
1.418000E-7	7.853857E-3
1.418500E-7	7.751080E-3
1.419000E-7	7.614045E-3
1.419500E-7	7.485574E-3
1.420000E-7	7.391362E-3
1.420500E-7	7.331409E-3
1.421000E-7	7.305715E-3
1.421500E-7	7.305715E-3
1.422000E-7	7.357103E-3
1.422500E-7	7.451315E-3
1.423000E-7	7.528397E-3
1.423500E-7	7.596915E-3
1.424000E-7	7.673998E-3
1.424500E-7	7.742516E-3
1.425000E-7	7.785339E-3
1.425500E-7	7.828163E-3
1.426000E-7	7.862422E-3
1.426500E-7	7.862422E-3
1.427000E-7	7.845292E-3
1.427500E-7	7.836728E-3
1.428000E-7	7.836728E-3
1.428500E-7	7.802469E-3
1.429000E-7	7.759645E-3
1.429500E-7	7.733951E-3
1.430000E-7	7.751080E-3
1.430500E-7	7.793904E-3
1.431000E-7	7.811034E-3
1.431500E-7	7.811034E-3
1.432000E-7	7.819598E-3
1.432500E-7	7.845292E-3
1.433000E-7	7.836728E-3
1.433500E-7	7.802469E-3
1.434000E-7	7.768210E-3
1.434500E-7	7.751080E-3
1.435000E-7	7.751080E-3
1.435500E-7	7.725386E-3
1.436000E-7	7.691127E-3
1.436500E-7	7.691127E-3
1.437000E-7	7.708257E-3
1.437500E-7	7.742516E-3
1.438000E-7	7.742516E-3
1.438500E-7	7.725386E-3
1.439000E-7	7.716822E-3
1.439500E-7	7.691127E-3
1.440000E-7	7.631174E-3
1.440500E-7	7.571221E-3
1.441000E-7	7.536962E-3
1.441500E-7	7.494139E-3
1.442000E-7	7.434185E-3
1.442500E-7	7.365668E-3
1.443000E-7	7.288585E-3
1.443500E-7	7.245761E-3
1.444000E-7	7.220067E-3
1.444500E-7	7.185808E-3
1.445000E-7	7.134420E-3
1.445500E-7	7.108726E-3
1.446000E-7	7.108726E-3
1.446500E-7	7.083032E-3
1.447000E-7	7.048773E-3
1.447500E-7	7.057337E-3
1.448000E-7	7.065902E-3
1.448500E-7	7.065902E-3
1.449000E-7	7.100161E-3
1.449500E-7	7.168679E-3
1.450000E-7	7.228632E-3
1.450500E-7	7.271456E-3
1.451000E-7	7.297150E-3
1.451500E-7	7.305715E-3
1.452000E-7	7.297150E-3
1.452500E-7	7.280020E-3
1.453000E-7	7.220067E-3
1.453500E-7	7.134420E-3
1.454000E-7	7.057337E-3
1.454500E-7	6.988820E-3
1.455000E-7	6.928866E-3
1.455500E-7	6.877478E-3
1.456000E-7	6.834654E-3
1.456500E-7	6.834654E-3
1.457000E-7	6.868913E-3
1.457500E-7	6.911737E-3
1.458000E-7	6.963125E-3
1.458500E-7	7.048773E-3
1.459000E-7	7.142985E-3
1.459500E-7	7.185808E-3
1.460000E-7	7.211502E-3
1.460500E-7	7.271456E-3
1.461000E-7	7.314279E-3
1.461500E-7	7.331409E-3
1.462000E-7	7.365668E-3
1.462500E-7	7.399927E-3
1.463000E-7	7.417056E-3
1.463500E-7	7.434185E-3
1.464000E-7	7.485574E-3
1.464500E-7	7.528397E-3
1.465000E-7	7.562656E-3
1.465500E-7	7.596915E-3
1.466000E-7	7.614045E-3
1.466500E-7	7.579786E-3
1.467000E-7	7.536962E-3
1.467500E-7	7.477009E-3
1.468000E-7	7.357103E-3
1.468500E-7	7.220067E-3
1.469000E-7	7.125855E-3
1.469500E-7	7.014514E-3
1.470000E-7	6.894607E-3
1.470500E-7	6.834654E-3
1.471000E-7	6.817525E-3
1.471500E-7	6.783266E-3
1.472000E-7	6.808960E-3
1.472500E-7	6.920302E-3
1.473000E-7	7.023078E-3
1.473500E-7	7.117290E-3
1.474000E-7	7.254326E-3
1.474500E-7	7.374232E-3
1.475000E-7	7.417056E-3
1.475500E-7	7.459880E-3
1.476000E-7	7.502703E-3
1.476500E-7	7.468444E-3
1.477000E-7	7.374232E-3
1.477500E-7	7.288585E-3
1.478000E-7	7.185808E-3
1.478500E-7	7.065902E-3
1.479000E-7	7.023078E-3
1.479500E-7	7.005949E-3
1.480000E-7	6.928866E-3
1.480500E-7	6.877478E-3
1.481000E-7	6.868913E-3
1.481500E-7	6.877478E-3
1.482000E-7	6.886043E-3
1.482500E-7	6.920302E-3
1.483000E-7	6.945996E-3
1.483500E-7	6.954561E-3
1.484000E-7	6.963125E-3
1.484500E-7	6.945996E-3
1.485000E-7	6.928866E-3
1.485500E-7	6.954561E-3
1.486000E-7	6.963125E-3
1.486500E-7	6.945996E-3
1.487000E-7	6.937431E-3
1.487500E-7	6.928866E-3
1.488000E-7	6.886043E-3
1.488500E-7	6.860349E-3
1.489000E-7	6.886043E-3
1.489500E-7	6.868913E-3
1.490000E-7	6.834654E-3
1.490500E-7	6.843219E-3
1.491000E-7	6.851784E-3
1.491500E-7	6.826090E-3
1.492000E-7	6.834654E-3
1.492500E-7	6.886043E-3
1.493000E-7	6.911737E-3
1.493500E-7	6.945996E-3
1.494000E-7	7.014514E-3
1.494500E-7	7.065902E-3
1.495000E-7	7.091596E-3
1.495500E-7	7.125855E-3
1.496000E-7	7.125855E-3
1.496500E-7	7.074467E-3
1.497000E-7	7.023078E-3
1.497500E-7	6.971690E-3
1.498000E-7	6.903172E-3
1.498500E-7	6.851784E-3
1.499000E-7	6.817525E-3
1.499500E-7	6.757572E-3
1.500000E-7	6.706183E-3
1.500500E-7	6.697619E-3
1.501000E-7	6.706183E-3
1.501500E-7	6.714748E-3
1.502000E-7	6.757572E-3
1.502500E-7	6.826090E-3
1.503000E-7	6.860349E-3
1.503500E-7	6.860349E-3
1.504000E-7	6.877478E-3
1.504500E-7	6.911737E-3
1.505000E-7	6.903172E-3
1.505500E-7	6.851784E-3
1.506000E-7	6.808960E-3
1.506500E-7	6.800395E-3
1.507000E-7	6.783266E-3
1.507500E-7	6.740442E-3
1.508000E-7	6.714748E-3
1.508500E-7	6.714748E-3
1.509000E-7	6.714748E-3
1.509500E-7	6.731878E-3
1.510000E-7	6.757572E-3
1.510500E-7	6.791831E-3
1.511000E-7	6.800395E-3
1.511500E-7	6.808960E-3
1.512000E-7	6.843219E-3
1.512500E-7	6.877478E-3
1.513000E-7	6.877478E-3
1.513500E-7	6.843219E-3
1.514000E-7	6.783266E-3
1.514500E-7	6.731878E-3
1.515000E-7	6.680489E-3
1.515500E-7	6.603407E-3
1.516000E-7	6.492065E-3
1.516500E-7	6.380724E-3
1.517000E-7	6.286512E-3
1.517500E-7	6.200864E-3
1.518000E-7	6.123782E-3
1.518500E-7	6.063829E-3
1.519000E-7	6.021005E-3
1.519500E-7	6.003876E-3
1.520000E-7	6.021005E-3
1.520500E-7	6.080958E-3
1.521000E-7	6.140911E-3
1.521500E-7	6.217994E-3
1.522000E-7	6.312206E-3
1.522500E-7	6.406418E-3
1.523000E-7	6.474936E-3
1.523500E-7	6.509195E-3
1.524000E-7	6.500630E-3
1.524500E-7	6.483500E-3
1.525000E-7	6.474936E-3
1.525500E-7	6.440677E-3
1.526000E-7	6.389288E-3
1.526500E-7	6.337900E-3
1.527000E-7	6.286512E-3
1.527500E-7	6.252253E-3
1.528000E-7	6.252253E-3
1.528500E-7	6.235123E-3
1.529000E-7	6.226559E-3
1.529500E-7	6.260817E-3
1.530000E-7	6.337900E-3
1.530500E-7	6.389288E-3
1.531000E-7	6.432112E-3
1.531500E-7	6.517759E-3
1.532000E-7	6.569148E-3
1.532500E-7	6.569148E-3
1.533000E-7	6.569148E-3
1.533500E-7	6.569148E-3
1.534000E-7	6.526324E-3
1.534500E-7	6.440677E-3
1.535000E-7	6.363594E-3
1.535500E-7	6.295076E-3
1.536000E-7	6.235123E-3
1.536500E-7	6.183735E-3
1.537000E-7	6.158041E-3
1.537500E-7	6.166605E-3
1.538000E-7	6.192300E-3
1.538500E-7	6.243688E-3
1.539000E-7	6.303641E-3
1.539500E-7	6.380724E-3
1.540000E-7	6.423547E-3
1.540500E-7	6.457806E-3
1.541000E-7	6.492065E-3
1.541500E-7	6.517759E-3
1.542000E-7	6.474936E-3
1.542500E-7	6.406418E-3
1.543000E-7	6.372159E-3
1.543500E-7	6.346465E-3
1.544000E-7	6.277947E-3
1.544500E-7	6.200864E-3
1.545000E-7	6.132347E-3
1.545500E-7	6.080958E-3
1.546000E-7	6.012440E-3
1.546500E-7	5.909664E-3
1.547000E-7	5.832581E-3
1.547500E-7	5.849710E-3
1.548000E-7	5.892534E-3
1.548500E-7	5.901099E-3
1.549000E-7	5.901099E-3
1.549500E-7	5.943922E-3
1.550000E-7	5.986746E-3
1.550500E-7	6.003876E-3
1.551000E-7	6.029570E-3
1.551500E-7	6.080958E-3
1.552000E-7	6.115217E-3
1.552500E-7	6.106652E-3
1.553000E-7	6.098088E-3
1.553500E-7	6.055264E-3
1.554000E-7	6.003876E-3
1.554500E-7	5.986746E-3
1.555000E-7	6.012440E-3
1.555500E-7	6.021005E-3
1.556000E-7	6.046699E-3
1.556500E-7	6.106652E-3
1.557000E-7	6.166605E-3
1.557500E-7	6.175170E-3
1.558000E-7	6.183735E-3
1.558500E-7	6.226559E-3
1.559000E-7	6.235123E-3
1.559500E-7	6.166605E-3
1.560000E-7	6.089523E-3
1.560500E-7	6.038135E-3
1.561000E-7	5.969617E-3
1.561500E-7	5.841146E-3
1.562000E-7	5.755498E-3
1.562500E-7	5.729804E-3
1.563000E-7	5.721240E-3
1.563500E-7	5.721240E-3
1.564000E-7	5.729804E-3
1.564500E-7	5.755498E-3
1.565000E-7	5.806887E-3
1.565500E-7	5.858275E-3
1.566000E-7	5.883969E-3
1.566500E-7	5.918228E-3
1.567000E-7	5.969617E-3
1.567500E-7	5.969617E-3
1.568000E-7	5.935358E-3
1.568500E-7	5.926793E-3
1.569000E-7	5.926793E-3
1.569500E-7	5.892534E-3
1.570000E-7	5.866840E-3
1.570500E-7	5.866840E-3
1.571000E-7	5.892534E-3
1.571500E-7	5.909664E-3
1.572000E-7	5.935358E-3
1.572500E-7	5.969617E-3
1.573000E-7	6.012440E-3
1.573500E-7	6.046699E-3
1.574000E-7	6.089523E-3
1.574500E-7	6.140911E-3
1.575000E-7	6.175170E-3
1.575500E-7	6.192300E-3
1.576000E-7	6.175170E-3
1.576500E-7	6.140911E-3
1.577000E-7	6.089523E-3
1.577500E-7	6.021005E-3
1.578000E-7	5.961052E-3
1.578500E-7	5.909664E-3
1.579000E-7	5.866840E-3
1.579500E-7	5.815452E-3
1.580000E-7	5.764063E-3
1.580500E-7	5.721240E-3
1.581000E-7	5.738369E-3
1.581500E-7	5.789757E-3
1.582000E-7	5.815452E-3
1.582500E-7	5.824016E-3
1.583000E-7	5.849710E-3
1.583500E-7	5.858275E-3
1.584000E-7	5.824016E-3
1.584500E-7	5.772628E-3
1.585000E-7	5.712675E-3
1.585500E-7	5.627027E-3
1.586000E-7	5.541380E-3
1.586500E-7	5.472862E-3
1.587000E-7	5.387215E-3
1.587500E-7	5.310132E-3
1.588000E-7	5.275874E-3
1.588500E-7	5.267309E-3
1.589000E-7	5.267309E-3
1.589500E-7	5.310132E-3
1.590000E-7	5.412909E-3
1.590500E-7	5.515686E-3
1.591000E-7	5.575639E-3
1.591500E-7	5.609898E-3
1.592000E-7	5.635592E-3
1.592500E-7	5.704110E-3
1.593000E-7	5.764063E-3
1.593500E-7	5.789757E-3
1.594000E-7	5.772628E-3
1.594500E-7	5.764063E-3
1.595000E-7	5.789757E-3
1.595500E-7	5.824016E-3
1.596000E-7	5.883969E-3
1.596500E-7	5.952487E-3
1.597000E-7	5.986746E-3
1.597500E-7	6.003876E-3
1.598000E-7	6.021005E-3
1.598500E-7	5.995311E-3
1.599000E-7	5.952487E-3
1.599500E-7	5.892534E-3
1.600000E-7	5.815452E-3
1.600500E-7	5.729804E-3
1.601000E-7	5.652722E-3
1.601500E-7	5.567074E-3
1.602000E-7	5.481427E-3
1.602500E-7	5.447168E-3
1.603000E-7	5.438603E-3
1.603500E-7	5.421474E-3
1.604000E-7	5.430039E-3
1.604500E-7	5.481427E-3
1.605000E-7	5.515686E-3
1.605500E-7	5.549945E-3
1.606000E-7	5.601333E-3
1.606500E-7	5.644157E-3
1.607000E-7	5.686981E-3
1.607500E-7	5.746934E-3
1.608000E-7	5.789757E-3
1.608500E-7	5.815452E-3
1.609000E-7	5.875405E-3
1.609500E-7	5.918228E-3
1.610000E-7	5.892534E-3
1.610500E-7	5.849710E-3
1.611000E-7	5.824016E-3
1.611500E-7	5.764063E-3
1.612000E-7	5.661286E-3
1.612500E-7	5.584204E-3
1.613000E-7	5.498557E-3
1.613500E-7	5.378650E-3
1.614000E-7	5.293003E-3
1.614500E-7	5.258744E-3
1.615000E-7	5.215920E-3
1.615500E-7	5.181662E-3
1.616000E-7	5.181662E-3
1.616500E-7	5.215920E-3
1.617000E-7	5.258744E-3
1.617500E-7	5.310132E-3
1.618000E-7	5.370086E-3
1.618500E-7	5.430039E-3
1.619000E-7	5.472862E-3
1.619500E-7	5.498557E-3
1.620000E-7	5.515686E-3
1.620500E-7	5.541380E-3
1.621000E-7	5.541380E-3
1.621500E-7	5.481427E-3
1.622000E-7	5.438603E-3
1.622500E-7	5.430039E-3
1.623000E-7	5.387215E-3
1.623500E-7	5.327262E-3
1.624000E-7	5.310132E-3
1.624500E-7	5.301568E-3
1.625000E-7	5.250179E-3
1.625500E-7	5.181662E-3
1.626000E-7	5.164532E-3
1.626500E-7	5.181662E-3
1.627000E-7	5.190226E-3
1.627500E-7	5.190226E-3
1.628000E-7	5.181662E-3
1.628500E-7	5.173097E-3
1.629000E-7	5.164532E-3
1.629500E-7	5.164532E-3
1.630000E-7	5.173097E-3
1.630500E-7	5.173097E-3
1.631000E-7	5.164532E-3
1.631500E-7	5.207356E-3
1.632000E-7	5.275874E-3
1.632500E-7	5.327262E-3
1.633000E-7	5.378650E-3
1.633500E-7	5.430039E-3
1.634000E-7	5.438603E-3
1.634500E-7	5.421474E-3
1.635000E-7	5.395780E-3
1.635500E-7	5.361521E-3
1.636000E-7	5.293003E-3
1.636500E-7	5.250179E-3
1.637000E-7	5.207356E-3
1.637500E-7	5.155967E-3
1.638000E-7	5.130273E-3
1.638500E-7	5.130273E-3
1.639000E-7	5.121708E-3
1.639500E-7	5.104579E-3
1.640000E-7	5.104579E-3
1.640500E-7	5.113144E-3
1.641000E-7	5.113144E-3
1.641500E-7	5.130273E-3
1.642000E-7	5.113144E-3
1.642500E-7	5.078885E-3
1.643000E-7	5.087449E-3
1.643500E-7	5.104579E-3
1.644000E-7	5.096014E-3
1.644500E-7	5.121708E-3
1.645000E-7	5.164532E-3
1.645500E-7	5.190226E-3
1.646000E-7	5.207356E-3
1.646500E-7	5.233050E-3
1.647000E-7	5.207356E-3
1.647500E-7	5.181662E-3
1.648000E-7	5.190226E-3
1.648500E-7	5.164532E-3
1.649000E-7	5.061755E-3
1.649500E-7	4.993237E-3
1.650000E-7	4.984673E-3
1.650500E-7	4.967543E-3
1.651000E-7	4.916155E-3
1.651500E-7	4.899025E-3
1.652000E-7	4.950414E-3
1.652500E-7	5.018932E-3
1.653000E-7	5.070320E-3
1.653500E-7	5.121708E-3
1.654000E-7	5.147403E-3
1.654500E-7	5.181662E-3
1.655000E-7	5.207356E-3
1.655500E-7	5.250179E-3
1.656000E-7	5.284438E-3
1.656500E-7	5.301568E-3
1.657000E-7	5.301568E-3
1.657500E-7	5.293003E-3
1.658000E-7	5.275874E-3
1.658500E-7	5.233050E-3
1.659000E-7	5.215920E-3
1.659500E-7	5.181662E-3
1.660000E-7	5.104579E-3
1.660500E-7	5.044626E-3
1.661000E-7	5.001802E-3
1.661500E-7	4.916155E-3
1.662000E-7	4.830508E-3
1.662500E-7	4.796249E-3
1.663000E-7	4.753425E-3
1.663500E-7	4.684907E-3
1.664000E-7	4.676342E-3
1.664500E-7	4.736296E-3
1.665000E-7	4.736296E-3
1.665500E-7	4.744860E-3
1.666000E-7	4.830508E-3
1.666500E-7	4.924720E-3
1.667000E-7	4.976108E-3
1.667500E-7	5.061755E-3
1.668000E-7	5.130273E-3
1.668500E-7	5.147403E-3
1.669000E-7	5.173097E-3
1.669500E-7	5.215920E-3
1.670000E-7	5.190226E-3
1.670500E-7	5.130273E-3
1.671000E-7	5.078885E-3
1.671500E-7	5.027496E-3
1.672000E-7	4.967543E-3
1.672500E-7	4.916155E-3
1.673000E-7	4.830508E-3
1.673500E-7	4.736296E-3
1.674000E-7	4.693472E-3
1.674500E-7	4.693472E-3
1.675000E-7	4.676342E-3
1.675500E-7	4.667778E-3
1.676000E-7	4.710601E-3
1.676500E-7	4.761990E-3
1.677000E-7	4.830508E-3
1.677500E-7	4.873331E-3
1.678000E-7	4.873331E-3
1.678500E-7	4.890461E-3
1.679000E-7	4.950414E-3
1.679500E-7	4.967543E-3
1.680000E-7	4.907590E-3
1.680500E-7	4.873331E-3
1.681000E-7	4.856202E-3
1.681500E-7	4.804813E-3
1.682000E-7	4.753425E-3
1.682500E-7	4.727731E-3
1.683000E-7	4.676342E-3
1.683500E-7	4.624954E-3
1.684000E-7	4.624954E-3
1.684500E-7	4.616389E-3
1.685000E-7	4.582130E-3
1.685500E-7	4.565001E-3
1.686000E-7	4.547872E-3
1.686500E-7	4.530742E-3
1.687000E-7	4.547872E-3
1.687500E-7	4.565001E-3
1.688000E-7	4.573566E-3
1.688500E-7	4.616389E-3
1.689000E-7	4.659213E-3
1.689500E-7	4.659213E-3
1.690000E-7	4.650648E-3
1.690500E-7	4.633519E-3
1.691000E-7	4.556436E-3
1.691500E-7	4.470789E-3
1.692000E-7	4.445095E-3
1.692500E-7	4.436530E-3
1.693000E-7	4.385142E-3
1.693500E-7	4.359447E-3
1.694000E-7	4.402271E-3
1.694500E-7	4.479354E-3
1.695000E-7	4.556436E-3
1.695500E-7	4.642084E-3
1.696000E-7	4.736296E-3
1.696500E-7	4.839072E-3
1.697000E-7	4.958979E-3
1.697500E-7	5.044626E-3
1.698000E-7	5.053191E-3
1.698500E-7	5.053191E-3
1.699000E-7	5.036061E-3
1.699500E-7	4.958979E-3
1.700000E-7	4.839072E-3
1.700500E-7	4.702037E-3
1.701000E-7	4.547872E-3
1.701500E-7	4.393706E-3
1.702000E-7	4.248106E-3
1.702500E-7	4.102506E-3
1.703000E-7	3.948340E-3
1.703500E-7	3.879823E-3
1.704000E-7	3.896952E-3
1.704500E-7	3.948340E-3
1.705000E-7	3.999729E-3
1.705500E-7	4.068247E-3
1.706000E-7	4.153894E-3
1.706500E-7	4.282365E-3
1.707000E-7	4.410836E-3
1.707500E-7	4.479354E-3
1.708000E-7	4.530742E-3
1.708500E-7	4.590695E-3
1.709000E-7	4.582130E-3
1.709500E-7	4.522177E-3
1.710000E-7	4.496483E-3
1.710500E-7	4.505048E-3
1.711000E-7	4.427965E-3
1.711500E-7	4.325189E-3
1.712000E-7	4.325189E-3
1.712500E-7	4.385142E-3
1.713000E-7	4.385142E-3
1.713500E-7	4.385142E-3
1.714000E-7	4.419401E-3
1.714500E-7	4.427965E-3
1.715000E-7	4.410836E-3
1.715500E-7	4.402271E-3
1.716000E-7	4.385142E-3
1.716500E-7	4.325189E-3
1.717000E-7	4.248106E-3
1.717500E-7	4.188153E-3
1.718000E-7	4.136764E-3
1.718500E-7	4.093941E-3
1.719000E-7	4.085376E-3
1.719500E-7	4.059682E-3
1.720000E-7	4.016858E-3
1.720500E-7	4.025423E-3
1.721000E-7	4.085376E-3
1.721500E-7	4.145329E-3
1.722000E-7	4.205282E-3
1.722500E-7	4.273800E-3
1.723000E-7	4.333753E-3
1.723500E-7	4.368012E-3
1.724000E-7	4.402271E-3
1.724500E-7	4.427965E-3
1.725000E-7	4.402271E-3
1.725500E-7	4.368012E-3
1.726000E-7	4.350883E-3
1.726500E-7	4.342318E-3
1.727000E-7	4.325189E-3
1.727500E-7	4.299494E-3
1.728000E-7	4.239541E-3
1.728500E-7	4.179588E-3
1.729000E-7	4.162459E-3
1.729500E-7	4.162459E-3
1.730000E-7	4.153894E-3
1.730500E-7	4.171023E-3
1.731000E-7	4.222412E-3
1.731500E-7	4.273800E-3
1.732000E-7	4.333753E-3
1.732500E-7	4.445095E-3
1.733000E-7	4.556436E-3
1.733500E-7	4.659213E-3
1.734000E-7	4.770554E-3
1.734500E-7	4.873331E-3
1.735000E-7	4.950414E-3
1.735500E-7	5.001802E-3
1.736000E-7	5.027496E-3
1.736500E-7	4.993237E-3
1.737000E-7	4.933284E-3
1.737500E-7	4.890461E-3
1.738000E-7	4.839072E-3
1.738500E-7	4.727731E-3
1.739000E-7	4.599260E-3
1.739500E-7	4.513613E-3
1.740000E-7	4.419401E-3
1.740500E-7	4.325189E-3
1.741000E-7	4.265235E-3
1.741500E-7	4.256671E-3
1.742000E-7	4.248106E-3
1.742500E-7	4.248106E-3
1.743000E-7	4.239541E-3
1.743500E-7	4.230977E-3
1.744000E-7	4.239541E-3
1.744500E-7	4.256671E-3
1.745000E-7	4.256671E-3
1.745500E-7	4.273800E-3
1.746000E-7	4.325189E-3
1.746500E-7	4.359447E-3
1.747000E-7	4.359447E-3
1.747500E-7	4.359447E-3
1.748000E-7	4.368012E-3
1.748500E-7	4.359447E-3
1.749000E-7	4.325189E-3
1.749500E-7	4.273800E-3
1.750000E-7	4.205282E-3
1.750500E-7	4.119635E-3
1.751000E-7	4.059682E-3
1.751500E-7	4.042552E-3
1.752000E-7	4.016858E-3
1.752500E-7	4.008294E-3
1.753000E-7	4.042552E-3
1.753500E-7	4.111070E-3
1.754000E-7	4.162459E-3
1.754500E-7	4.205282E-3
1.755000E-7	4.248106E-3
1.755500E-7	4.282365E-3
1.756000E-7	4.308059E-3
1.756500E-7	4.325189E-3
1.757000E-7	4.299494E-3
1.757500E-7	4.239541E-3
1.758000E-7	4.196718E-3
1.758500E-7	4.145329E-3
1.759000E-7	4.068247E-3
1.759500E-7	3.991164E-3
1.760000E-7	3.956905E-3
1.760500E-7	3.956905E-3
1.761000E-7	3.974035E-3
1.761500E-7	3.999729E-3
1.762000E-7	4.025423E-3
1.762500E-7	4.059682E-3
1.763000E-7	4.085376E-3
1.763500E-7	4.111070E-3
1.764000E-7	4.153894E-3
1.764500E-7	4.205282E-3
1.765000E-7	4.205282E-3
1.765500E-7	4.188153E-3
1.766000E-7	4.188153E-3
1.766500E-7	4.153894E-3
1.767000E-7	4.068247E-3
1.767500E-7	4.016858E-3
1.768000E-7	3.991164E-3
1.768500E-7	3.931211E-3
1.769000E-7	3.854128E-3
1.769500E-7	3.836999E-3
1.770000E-7	3.854128E-3
1.770500E-7	3.845564E-3
1.771000E-7	3.836999E-3
1.771500E-7	3.879823E-3
1.772000E-7	3.939776E-3
1.772500E-7	3.965470E-3
1.773000E-7	4.016858E-3
1.773500E-7	4.085376E-3
1.774000E-7	4.119635E-3
1.774500E-7	4.153894E-3
1.775000E-7	4.205282E-3
1.775500E-7	4.239541E-3
1.776000E-7	4.222412E-3
1.776500E-7	4.205282E-3
1.777000E-7	4.171023E-3
1.777500E-7	4.102506E-3
1.778000E-7	4.025423E-3
1.778500E-7	3.956905E-3
1.779000E-7	3.905517E-3
1.779500E-7	3.862693E-3
1.780000E-7	3.836999E-3
1.780500E-7	3.828434E-3
1.781000E-7	3.828434E-3
1.781500E-7	3.828434E-3
1.782000E-7	3.854128E-3
1.782500E-7	3.931211E-3
1.783000E-7	4.025423E-3
1.783500E-7	4.093941E-3
1.784000E-7	4.128200E-3
1.784500E-7	4.162459E-3
1.785000E-7	4.222412E-3
1.785500E-7	4.248106E-3
1.786000E-7	4.222412E-3
1.786500E-7	4.171023E-3
1.787000E-7	4.128200E-3
1.787500E-7	4.093941E-3
1.788000E-7	4.059682E-3
1.788500E-7	3.999729E-3
1.789000E-7	3.948340E-3
1.789500E-7	3.896952E-3
1.790000E-7	3.854128E-3
1.790500E-7	3.836999E-3
1.791000E-7	3.845564E-3
1.791500E-7	3.836999E-3
1.792000E-7	3.794175E-3
1.792500E-7	3.802740E-3
1.793000E-7	3.819869E-3
1.793500E-7	3.794175E-3
1.794000E-7	3.751352E-3
1.794500E-7	3.768481E-3
1.795000E-7	3.811305E-3
1.795500E-7	3.836999E-3
1.796000E-7	3.845564E-3
1.796500E-7	3.871258E-3
1.797000E-7	3.871258E-3
1.797500E-7	3.862693E-3
1.798000E-7	3.862693E-3
1.798500E-7	3.828434E-3
1.799000E-7	3.768481E-3
1.799500E-7	3.734222E-3
1.800000E-7	3.708528E-3
1.800500E-7	3.657140E-3
1.801000E-7	3.614316E-3
1.801500E-7	3.597187E-3
1.802000E-7	3.588622E-3
1.802500E-7	3.597187E-3
1.803000E-7	3.622881E-3
1.803500E-7	3.674269E-3
1.804000E-7	3.725657E-3
1.804500E-7	3.794175E-3
1.805000E-7	3.879823E-3
1.805500E-7	3.931211E-3
1.806000E-7	3.965470E-3
1.806500E-7	4.042552E-3
1.807000E-7	4.102506E-3
1.807500E-7	4.085376E-3
1.808000E-7	4.051117E-3
1.808500E-7	4.051117E-3
1.809000E-7	4.076811E-3
1.809500E-7	4.085376E-3
1.810000E-7	4.076811E-3
1.810500E-7	4.051117E-3
1.811000E-7	4.042552E-3
1.811500E-7	4.068247E-3
1.812000E-7	4.059682E-3
1.812500E-7	4.008294E-3
1.813000E-7	3.974035E-3
1.813500E-7	3.956905E-3
1.814000E-7	3.896952E-3
1.814500E-7	3.836999E-3
1.815000E-7	3.811305E-3
1.815500E-7	3.759916E-3
1.816000E-7	3.699963E-3
1.816500E-7	3.691399E-3
1.817000E-7	3.708528E-3
1.817500E-7	3.682834E-3
1.818000E-7	3.657140E-3
1.818500E-7	3.657140E-3
1.819000E-7	3.648575E-3
1.819500E-7	3.648575E-3
1.820000E-7	3.682834E-3
1.820500E-7	3.691399E-3
1.821000E-7	3.648575E-3
1.821500E-7	3.597187E-3
1.822000E-7	3.580057E-3
1.822500E-7	3.571492E-3
1.823000E-7	3.588622E-3
1.823500E-7	3.597187E-3
1.824000E-7	3.605751E-3
1.824500E-7	3.640010E-3
1.825000E-7	3.708528E-3
1.825500E-7	3.734222E-3
1.826000E-7	3.751352E-3
1.826500E-7	3.802740E-3
1.827000E-7	3.811305E-3
1.827500E-7	3.785611E-3
1.828000E-7	3.811305E-3
1.828500E-7	3.854128E-3
1.829000E-7	3.819869E-3
1.829500E-7	3.785611E-3
1.830000E-7	3.802740E-3
1.830500E-7	3.794175E-3
1.831000E-7	3.742787E-3
1.831500E-7	3.751352E-3
1.832000E-7	3.777046E-3
1.832500E-7	3.742787E-3
1.833000E-7	3.708528E-3
1.833500E-7	3.682834E-3
1.834000E-7	3.588622E-3
1.834500E-7	3.502974E-3
1.835000E-7	3.494410E-3
1.835500E-7	3.451586E-3
1.836000E-7	3.331680E-3
1.836500E-7	3.254597E-3
1.837000E-7	3.263162E-3
1.837500E-7	3.263162E-3
1.838000E-7	3.254597E-3
1.838500E-7	3.288856E-3
1.839000E-7	3.348809E-3
1.839500E-7	3.408762E-3
1.840000E-7	3.468716E-3
1.840500E-7	3.502974E-3
1.841000E-7	3.511539E-3
1.841500E-7	3.554363E-3
1.842000E-7	3.614316E-3
1.842500E-7	3.648575E-3
1.843000E-7	3.674269E-3
1.843500E-7	3.691399E-3
1.844000E-7	3.682834E-3
1.844500E-7	3.691399E-3
1.845000E-7	3.717093E-3
1.845500E-7	3.691399E-3
1.846000E-7	3.631445E-3
1.846500E-7	3.631445E-3
1.847000E-7	3.640010E-3
1.847500E-7	3.597187E-3
1.848000E-7	3.580057E-3
1.848500E-7	3.605751E-3
1.849000E-7	3.605751E-3
1.849500E-7	3.605751E-3
1.850000E-7	3.648575E-3
1.850500E-7	3.699963E-3
1.851000E-7	3.742787E-3
1.851500E-7	3.819869E-3
1.852000E-7	3.905517E-3
1.852500E-7	3.948340E-3
1.853000E-7	3.999729E-3
1.853500E-7	4.059682E-3
1.854000E-7	4.068247E-3
1.854500E-7	4.042552E-3
1.855000E-7	4.016858E-3
1.855500E-7	3.956905E-3
1.856000E-7	3.862693E-3
1.856500E-7	3.777046E-3
1.857000E-7	3.691399E-3
1.857500E-7	3.571492E-3
1.858000E-7	3.477280E-3
1.858500E-7	3.417327E-3
1.859000E-7	3.348809E-3
1.859500E-7	3.297421E-3
1.860000E-7	3.271727E-3
1.860500E-7	3.246033E-3
1.861000E-7	3.237468E-3
1.861500E-7	3.254597E-3
1.862000E-7	3.263162E-3
1.862500E-7	3.246033E-3
1.863000E-7	3.271727E-3
1.863500E-7	3.331680E-3
1.864000E-7	3.348809E-3
1.864500E-7	3.340245E-3
1.865000E-7	3.348809E-3
1.865500E-7	3.348809E-3
1.866000E-7	3.305986E-3
1.866500E-7	3.246033E-3
1.867000E-7	3.186079E-3
1.867500E-7	3.117562E-3
1.868000E-7	3.049044E-3
1.868500E-7	2.997655E-3
1.869000E-7	2.946267E-3
1.869500E-7	2.912008E-3
1.870000E-7	2.903443E-3
1.870500E-7	2.886314E-3
1.871000E-7	2.903443E-3
1.871500E-7	2.954832E-3
1.872000E-7	3.014785E-3
1.872500E-7	3.091867E-3
1.873000E-7	3.186079E-3
1.873500E-7	3.246033E-3
1.874000E-7	3.246033E-3
1.874500E-7	3.263162E-3
1.875000E-7	3.314550E-3
1.875500E-7	3.323115E-3
1.876000E-7	3.305986E-3
1.876500E-7	3.297421E-3
1.877000E-7	3.305986E-3
1.877500E-7	3.323115E-3
1.878000E-7	3.331680E-3
1.878500E-7	3.323115E-3
1.879000E-7	3.323115E-3
1.879500E-7	3.314550E-3
1.880000E-7	3.271727E-3
1.880500E-7	3.228903E-3
1.881000E-7	3.194644E-3
1.881500E-7	3.126126E-3
1.882000E-7	3.040479E-3
1.882500E-7	2.971961E-3
1.883000E-7	2.929138E-3
1.883500E-7	2.877749E-3
1.884000E-7	2.869184E-3
1.884500E-7	2.912008E-3
1.885000E-7	2.963397E-3
1.885500E-7	3.023350E-3
1.886000E-7	3.091867E-3
1.886500E-7	3.186079E-3
1.887000E-7	3.297421E-3
1.887500E-7	3.417327E-3
1.888000E-7	3.494410E-3
1.888500E-7	3.511539E-3
1.889000E-7	3.528669E-3
1.889500E-7	3.520104E-3
1.890000E-7	3.460151E-3
1.890500E-7	3.417327E-3
1.891000E-7	3.434457E-3
1.891500E-7	3.460151E-3
1.892000E-7	3.451586E-3
1.892500E-7	3.451586E-3
1.893000E-7	3.468716E-3
1.893500E-7	3.477280E-3
1.894000E-7	3.451586E-3
1.894500E-7	3.434457E-3
1.895000E-7	3.425892E-3
1.895500E-7	3.391633E-3
1.896000E-7	3.331680E-3
1.896500E-7	3.271727E-3
1.897000E-7	3.220338E-3
1.897500E-7	3.151821E-3
1.898000E-7	3.083303E-3
1.898500E-7	3.074738E-3
1.899000E-7	3.091867E-3
1.899500E-7	3.091867E-3
1.900000E-7	3.100432E-3
1.900500E-7	3.134691E-3
1.901000E-7	3.143256E-3
1.901500E-7	3.117562E-3
1.902000E-7	3.074738E-3
1.902500E-7	3.040479E-3
1.903000E-7	2.971961E-3
1.903500E-7	2.843490E-3
1.904000E-7	2.697890E-3
1.904500E-7	2.577984E-3
1.905000E-7	2.500901E-3
1.905500E-7	2.458077E-3
1.906000E-7	2.415254E-3
1.906500E-7	2.398124E-3
1.907000E-7	2.449513E-3
1.907500E-7	2.543725E-3
1.908000E-7	2.672196E-3
1.908500E-7	2.826361E-3
1.909000E-7	2.980526E-3
1.909500E-7	3.074738E-3
1.910000E-7	3.108997E-3
1.910500E-7	3.151821E-3
1.911000E-7	3.151821E-3
1.911500E-7	3.074738E-3
1.912000E-7	2.980526E-3
1.912500E-7	2.929138E-3
1.913000E-7	2.869184E-3
1.913500E-7	2.783537E-3
1.914000E-7	2.723584E-3
1.914500E-7	2.697890E-3
1.915000E-7	2.689325E-3
1.915500E-7	2.706455E-3
1.916000E-7	2.757843E-3
1.916500E-7	2.826361E-3
1.917000E-7	2.920573E-3
1.917500E-7	3.014785E-3
1.918000E-7	3.066173E-3
1.918500E-7	3.074738E-3
1.919000E-7	3.074738E-3
1.919500E-7	3.049044E-3
1.920000E-7	2.997655E-3
1.920500E-7	2.954832E-3
1.921000E-7	2.894879E-3
1.921500E-7	2.800667E-3
1.922000E-7	2.706455E-3
1.922500E-7	2.655066E-3
1.923000E-7	2.629372E-3
1.923500E-7	2.586548E-3
1.924000E-7	2.560854E-3
1.924500E-7	2.560854E-3
1.925000E-7	2.603678E-3
1.925500E-7	2.655066E-3
1.926000E-7	2.689325E-3
1.926500E-7	2.732149E-3
1.927000E-7	2.800667E-3
1.927500E-7	2.869184E-3
1.928000E-7	2.929138E-3
1.928500E-7	3.014785E-3
1.929000E-7	3.126126E-3
1.929500E-7	3.211774E-3
1.930000E-7	3.220338E-3
1.930500E-7	3.194644E-3
1.931000E-7	3.177515E-3
1.931500E-7	3.126126E-3
1.932000E-7	3.049044E-3
1.932500E-7	2.971961E-3
1.933000E-7	2.894879E-3
1.933500E-7	2.809231E-3
1.934000E-7	2.706455E-3
1.934500E-7	2.603678E-3
1.935000E-7	2.509466E-3
1.935500E-7	2.449513E-3
1.936000E-7	2.440948E-3
1.936500E-7	2.500901E-3
1.937000E-7	2.577984E-3
1.937500E-7	2.672196E-3
1.938000E-7	2.766408E-3
1.938500E-7	2.886314E-3
1.939000E-7	2.997655E-3
1.939500E-7	3.108997E-3
1.940000E-7	3.211774E-3
1.940500E-7	3.280292E-3
1.941000E-7	3.314550E-3
1.941500E-7	3.314550E-3
1.942000E-7	3.288856E-3
1.942500E-7	3.228903E-3
1.943000E-7	3.134691E-3
1.943500E-7	3.040479E-3
1.944000E-7	2.937702E-3
1.944500E-7	2.843490E-3
1.945000E-7	2.774972E-3
1.945500E-7	2.723584E-3
1.946000E-7	2.672196E-3
1.946500E-7	2.655066E-3
1.947000E-7	2.689325E-3
1.947500E-7	2.715019E-3
1.948000E-7	2.715019E-3
1.948500E-7	2.723584E-3
1.949000E-7	2.732149E-3
1.949500E-7	2.723584E-3
1.950000E-7	2.732149E-3
1.950500E-7	2.749278E-3
1.951000E-7	2.706455E-3
1.951500E-7	2.629372E-3
1.952000E-7	2.577984E-3
1.952500E-7	2.518031E-3
1.953000E-7	2.440948E-3
1.953500E-7	2.415254E-3
1.954000E-7	2.398124E-3
1.954500E-7	2.355301E-3
1.955000E-7	2.363865E-3
1.955500E-7	2.432383E-3
1.956000E-7	2.483772E-3
1.956500E-7	2.500901E-3
1.957000E-7	2.560854E-3
1.957500E-7	2.637937E-3
1.958000E-7	2.672196E-3
1.958500E-7	2.689325E-3
1.959000E-7	2.723584E-3
1.959500E-7	2.757843E-3
1.960000E-7	2.783537E-3
1.960500E-7	2.826361E-3
1.961000E-7	2.834926E-3
1.961500E-7	2.809231E-3
1.962000E-7	2.783537E-3
1.962500E-7	2.783537E-3
1.963000E-7	2.800667E-3
1.963500E-7	2.792102E-3
1.964000E-7	2.740714E-3
1.964500E-7	2.672196E-3
1.965000E-7	2.620807E-3
1.965500E-7	2.569419E-3
1.966000E-7	2.509466E-3
1.966500E-7	2.423819E-3
1.967000E-7	2.372430E-3
1.967500E-7	2.346736E-3
1.968000E-7	2.346736E-3
1.968500E-7	2.355301E-3
1.969000E-7	2.389560E-3
1.969500E-7	2.475207E-3
1.970000E-7	2.595113E-3
1.970500E-7	2.723584E-3
1.971000E-7	2.843490E-3
1.971500E-7	2.971961E-3
1.972000E-7	3.091867E-3
1.972500E-7	3.186079E-3
1.973000E-7	3.237468E-3
1.973500E-7	3.237468E-3
1.974000E-7	3.203209E-3
1.974500E-7	3.134691E-3
1.975000E-7	3.040479E-3
1.975500E-7	2.946267E-3
1.976000E-7	2.869184E-3
1.976500E-7	2.792102E-3
1.977000E-7	2.706455E-3
1.977500E-7	2.646502E-3
1.978000E-7	2.637937E-3
1.978500E-7	2.637937E-3
1.979000E-7	2.629372E-3
1.979500E-7	2.655066E-3
1.980000E-7	2.697890E-3
1.980500E-7	2.749278E-3
1.981000E-7	2.817796E-3
1.981500E-7	2.877749E-3
1.982000E-7	2.886314E-3
1.982500E-7	2.869184E-3
1.983000E-7	2.843490E-3
1.983500E-7	2.783537E-3
1.984000E-7	2.680760E-3
1.984500E-7	2.560854E-3
1.985000E-7	2.449513E-3
1.985500E-7	2.355301E-3
1.986000E-7	2.312477E-3
1.986500E-7	2.321042E-3
1.987000E-7	2.329607E-3
1.987500E-7	2.338171E-3
1.988000E-7	2.398124E-3
1.988500E-7	2.466642E-3
1.989000E-7	2.526595E-3
1.989500E-7	2.569419E-3
1.990000E-7	2.577984E-3
1.990500E-7	2.560854E-3
1.991000E-7	2.526595E-3
1.991500E-7	2.500901E-3
1.992000E-7	2.440948E-3
1.992500E-7	2.372430E-3
1.993000E-7	2.338171E-3
1.993500E-7	2.321042E-3
1.994000E-7	2.312477E-3
1.994500E-7	2.321042E-3
1.995000E-7	2.380995E-3
1.995500E-7	2.466642E-3
1.996000E-7	2.535160E-3
1.996500E-7	2.577984E-3
1.997000E-7	2.637937E-3
1.997500E-7	2.715019E-3
1.998000E-7	2.774972E-3
1.998500E-7	2.826361E-3
1.999000E-7	2.877749E-3
1.999500E-7	2.920573E-3
2.000000E-7	2.912008E-3
