Study Name	Tungsten_Calibration
Sample Name	2024-10-03
Run Name	baseline_2000
Operator	Elena
Date	10/3/2024
Time	10:19
Sign	FIX
Grating Spacing	03.40um
Channel	3
Number Traces	2000
Files in Batch	6
Batch Number	4
dt	100.000001E-12
time stamp (ms)	10:19:55 AM
	
Time	Amplitude
0.000000E+0	1.267671E-3
1.000000E-10	1.497227E-3
2.000000E-10	1.456113E-3
3.000000E-10	1.043253E-3
4.000000E-10	4.042632E-4
5.000000E-10	-1.285140E-4
6.000000E-10	-4.180296E-4
7.000000E-10	-4.265951E-4
8.000000E-10	-1.559238E-4
9.000000E-10	9.076408E-5
1.000000E-9	2.141080E-4
1.100000E-9	-8.596299E-6
1.200000E-9	-4.300214E-4
1.300000E-9	-9.096922E-4
1.400000E-9	-1.074151E-3
1.500000E-9	-1.086142E-3
1.600000E-9	-6.612912E-4
1.700000E-9	-7.540759E-5
1.800000E-9	5.447382E-4
1.900000E-9	1.048393E-3
2.000000E-9	1.283089E-3
2.100000E-9	1.356752E-3
2.200000E-9	1.137474E-3
2.300000E-9	7.640163E-4
2.400000E-9	3.939846E-4
2.500000E-9	2.346653E-4
2.600000E-9	1.969769E-4
2.700000E-9	3.237470E-4
2.800000E-9	4.488041E-4
2.900000E-9	5.104760E-4
3.000000E-9	4.368123E-4
3.100000E-9	3.031897E-4
3.200000E-9	2.398047E-4
3.300000E-9	1.575754E-4
3.400000E-9	1.181738E-4
3.500000E-9	2.038293E-4
3.600000E-9	3.580092E-4
3.700000E-9	4.213943E-4
3.800000E-9	4.830663E-4
3.900000E-9	4.505172E-4
4.000000E-9	5.276071E-4
4.100000E-9	6.303937E-4
4.200000E-9	7.366066E-4
4.300000E-9	9.267618E-4
4.400000E-9	1.228269E-3
4.500000E-9	1.615432E-3
4.600000E-9	1.915226E-3
4.700000E-9	2.175619E-3
4.800000E-9	2.314381E-3
4.900000E-9	2.256135E-3
5.000000E-9	2.137931E-3
5.100000E-9	1.827858E-3
5.200000E-9	1.329343E-3
5.300000E-9	6.303937E-4
5.400000E-9	-4.628472E-5
5.500000E-9	-7.692171E-4
5.600000E-9	-1.108413E-3
5.700000E-9	-8.959873E-4
5.800000E-9	-3.152430E-4
5.900000E-9	4.607958E-4
6.000000E-9	1.178589E-3
6.100000E-9	1.699374E-3
6.200000E-9	1.778177E-3
6.300000E-9	1.709653E-3
6.400000E-9	1.315638E-3
6.500000E-9	9.918599E-4
6.600000E-9	7.931392E-4
6.700000E-9	7.434590E-4
6.800000E-9	7.006312E-4
6.900000E-9	4.882056E-4
7.000000E-9	1.781327E-4
7.100000E-9	-1.901860E-4
7.200000E-9	-4.728491E-4
7.300000E-9	-6.236028E-4
7.400000E-9	-6.287421E-4
7.500000E-9	-5.585046E-4
7.600000E-9	-3.563576E-4
7.700000E-9	-1.182353E-4
7.800000E-9	1.644278E-4
7.900000E-9	3.802797E-4
8.000000E-9	4.916318E-4
8.100000E-9	7.657294E-4
8.200000E-9	1.089507E-3
8.300000E-9	1.531490E-3
8.400000E-9	1.997456E-3
8.500000E-9	2.316094E-3
8.600000E-9	2.360635E-3
8.700000E-9	2.170480E-3
8.800000E-9	1.821005E-3
8.900000E-9	1.259105E-3
9.000000E-9	8.479587E-4
9.100000E-9	4.916318E-4
9.200000E-9	3.168946E-4
9.300000E-9	2.911980E-4
9.400000E-9	3.528699E-4
9.500000E-9	3.203208E-4
9.600000E-9	2.586489E-4
9.700000E-9	1.866982E-4
9.800000E-9	-1.202252E-5
9.900000E-9	-1.610631E-4
1.000000E-8	-3.220954E-4
1.010000E-8	-3.340872E-4
1.020000E-8	-2.895463E-4
1.030000E-8	-1.096698E-4
1.040000E-8	1.729934E-4
1.050000E-8	4.676483E-4
1.060000E-8	7.468852E-4
1.070000E-8	8.565243E-4
1.080000E-8	8.890733E-4
1.090000E-8	7.691556E-4
1.100000E-8	5.156154E-4
1.110000E-8	3.066159E-4
1.120000E-8	2.997635E-4
1.130000E-8	4.505172E-4
1.140000E-8	6.440986E-4
1.150000E-8	9.216224E-4
1.160000E-8	1.190581E-3
1.170000E-8	1.418424E-3
1.180000E-8	1.533203E-3
1.190000E-8	1.397867E-3
1.200000E-8	1.180302E-3
1.210000E-8	9.096307E-4
1.220000E-8	6.046971E-4
1.230000E-8	5.550169E-4
1.240000E-8	5.824267E-4
1.250000E-8	7.177623E-4
1.260000E-8	7.760081E-4
1.270000E-8	7.588770E-4
1.280000E-8	7.229017E-4
1.290000E-8	6.458117E-4
1.300000E-8	3.785666E-4
1.310000E-8	6.164121E-5
1.320000E-8	-1.850466E-4
1.330000E-8	-4.334476E-4
1.340000E-8	-3.906198E-4
1.350000E-8	-7.369448E-5
1.360000E-8	5.190416E-4
1.370000E-8	1.211138E-3
1.380000E-8	1.884390E-3
1.390000E-8	2.156775E-3
1.400000E-8	2.047136E-3
1.410000E-8	1.665112E-3
1.420000E-8	1.132335E-3
1.430000E-8	6.149757E-4
1.440000E-8	4.522303E-4
1.450000E-8	5.121891E-4
1.460000E-8	7.588770E-4
1.470000E-8	1.087794E-3
1.480000E-8	1.414998E-3
1.490000E-8	1.567465E-3
1.500000E-8	1.555473E-3
1.510000E-8	1.346474E-3
1.520000E-8	1.065524E-3
1.530000E-8	7.143361E-4
1.540000E-8	4.916318E-4
1.550000E-8	5.276071E-4
1.560000E-8	8.342538E-4
1.570000E-8	1.200859E-3
1.580000E-8	1.459539E-3
1.590000E-8	1.550334E-3
1.600000E-8	1.380736E-3
1.610000E-8	1.101499E-3
1.620000E-8	8.222621E-4
1.630000E-8	7.280410E-4
1.640000E-8	6.715084E-4
1.650000E-8	6.937788E-4
1.660000E-8	5.875660E-4
1.670000E-8	3.374519E-4
1.680000E-8	-1.373563E-5
1.690000E-8	-3.135299E-4
1.700000E-8	-5.053982E-4
1.710000E-8	-4.043247E-4
1.720000E-8	-1.373563E-5
1.730000E-8	3.734272E-4
1.740000E-8	7.194755E-4
1.750000E-8	8.359669E-4
1.760000E-8	7.366066E-4
1.770000E-8	4.762138E-4
1.780000E-8	2.723537E-4
1.790000E-8	2.603620E-4
1.800000E-8	4.556565E-4
1.810000E-8	6.680822E-4
1.820000E-8	7.845736E-4
1.830000E-8	7.640163E-4
1.840000E-8	5.601562E-4
1.850000E-8	1.918376E-4
1.860000E-8	-4.285850E-5
1.870000E-8	2.909212E-5
1.880000E-8	2.946242E-4
1.890000E-8	6.321068E-4
1.900000E-8	9.456060E-4
1.910000E-8	1.015843E-3
1.920000E-8	8.017047E-4
1.930000E-8	3.802797E-4
1.940000E-8	-3.943228E-5
1.950000E-8	-2.535710E-4
1.960000E-8	-3.238085E-4
1.970000E-8	-1.559238E-4
1.980000E-8	1.592885E-4
1.990000E-8	3.717141E-4
2.000000E-8	6.081233E-4
2.010000E-8	7.640163E-4
2.020000E-8	9.096307E-4
2.030000E-8	8.839340E-4
2.040000E-8	8.411063E-4
2.050000E-8	7.006312E-4
2.060000E-8	5.344596E-4
2.070000E-8	3.031897E-4
2.080000E-8	2.894848E-4
2.090000E-8	2.877717E-4
2.100000E-8	1.678540E-4
2.110000E-8	6.164121E-5
2.120000E-8	-1.559238E-4
2.130000E-8	-3.683494E-4
2.140000E-8	-3.923329E-4
2.150000E-8	-2.158826E-4
2.160000E-8	1.010427E-4
2.170000E-8	4.419516E-4
2.180000E-8	7.006312E-4
2.190000E-8	7.246148E-4
2.200000E-8	6.372462E-4
2.210000E-8	4.162550E-4
2.220000E-8	3.545830E-4
2.230000E-8	3.168946E-4
2.240000E-8	4.436647E-4
2.250000E-8	6.492379E-4
2.260000E-8	9.850075E-4
2.270000E-8	1.240261E-3
2.280000E-8	1.414998E-3
2.290000E-8	1.279662E-3
2.300000E-8	9.610240E-4
2.310000E-8	4.539434E-4
2.320000E-8	2.737901E-5
2.330000E-8	-6.170271E-5
2.340000E-8	1.866982E-4
2.350000E-8	5.704349E-4
2.360000E-8	1.002139E-3
2.370000E-8	1.223130E-3
2.380000E-8	1.125483E-3
2.390000E-8	8.496718E-4
2.400000E-8	5.310334E-4
2.410000E-8	3.186077E-4
2.420000E-8	2.980504E-4
2.430000E-8	3.631486E-4
2.440000E-8	5.961315E-4
2.450000E-8	8.119834E-4
2.460000E-8	1.020983E-3
2.470000E-8	8.890733E-4
2.480000E-8	6.115495E-4
2.490000E-8	1.781327E-4
2.500000E-8	-4.457161E-5
2.510000E-8	-1.130960E-4
2.520000E-8	1.524360E-4
2.530000E-8	4.436647E-4
2.540000E-8	6.132626E-4
2.550000E-8	7.246148E-4
2.560000E-8	6.817870E-4
2.570000E-8	5.498776E-4
2.580000E-8	6.406724E-4
2.590000E-8	8.051310E-4
2.600000E-8	1.060384E-3
2.610000E-8	1.324203E-3
2.620000E-8	1.385875E-3
2.630000E-8	1.373883E-3
2.640000E-8	1.170023E-3
2.650000E-8	9.678764E-4
2.660000E-8	7.126230E-4
2.670000E-8	5.173285E-4
2.680000E-8	3.751403E-4
2.690000E-8	2.757800E-4
2.700000E-8	4.470910E-4
2.710000E-8	6.509511E-4
2.720000E-8	1.002139E-3
2.730000E-8	1.173450E-3
2.740000E-8	1.137474E-3
2.750000E-8	8.017047E-4
2.760000E-8	5.293202E-4
2.770000E-8	2.980504E-4
2.780000E-8	4.402385E-4
2.790000E-8	7.828605E-4
2.800000E-8	1.255679E-3
2.810000E-8	1.408146E-3
2.820000E-8	1.281376E-3
2.830000E-8	9.524584E-4
2.840000E-8	5.790004E-4
2.850000E-8	4.368123E-4
2.860000E-8	5.036236E-4
2.870000E-8	8.633767E-4
2.880000E-8	1.077515E-3
2.890000E-8	1.094647E-3
2.900000E-8	8.479587E-4
2.910000E-8	4.625090E-4
2.920000E-8	-3.456969E-6
2.930000E-8	-3.700625E-4
2.940000E-8	-5.430866E-4
2.950000E-8	-5.191031E-4
2.960000E-8	-3.409396E-4
2.970000E-8	-2.058807E-5
2.980000E-8	3.819928E-4
2.990000E-8	7.074837E-4
3.000000E-8	1.010704E-3
3.010000E-8	1.166597E-3
3.020000E-8	1.094647E-3
3.030000E-8	7.862867E-4
3.040000E-8	4.436647E-4
3.050000E-8	1.490098E-4
3.060000E-8	1.524360E-4
3.070000E-8	4.642221E-4
3.080000E-8	9.884337E-4
3.090000E-8	1.505793E-3
3.100000E-8	1.910087E-3
3.110000E-8	2.030005E-3
3.120000E-8	1.719932E-3
3.130000E-8	1.058671E-3
3.140000E-8	2.535095E-4
3.150000E-8	-4.283083E-4
3.160000E-8	-9.216839E-4
3.170000E-8	-1.000487E-3
3.180000E-8	-6.732830E-4
3.190000E-8	-9.253869E-5
3.200000E-8	6.492379E-4
3.210000E-8	1.212851E-3
3.220000E-8	1.485236E-3
3.230000E-8	1.403006E-3
3.240000E-8	1.127196E-3
3.250000E-8	6.578035E-4
3.260000E-8	3.203208E-4
3.270000E-8	6.849365E-5
3.280000E-8	-3.074933E-8
3.290000E-8	-2.401429E-5
3.300000E-8	9.761652E-5
3.310000E-8	2.706406E-4
3.320000E-8	4.745007E-4
3.330000E-8	7.160492E-4
3.340000E-8	8.565243E-4
3.350000E-8	9.558846E-4
3.360000E-8	8.976389E-4
3.370000E-8	6.680822E-4
3.380000E-8	3.357388E-4
3.390000E-8	1.147476E-4
3.400000E-8	-4.971094E-5
3.410000E-8	-7.712070E-5
3.420000E-8	-5.485027E-5
3.430000E-8	-1.716185E-5
3.440000E-8	7.020676E-5
3.450000E-8	3.374519E-4
3.460000E-8	6.269675E-4
3.470000E-8	1.036401E-3
3.480000E-8	1.401293E-3
3.490000E-8	1.731923E-3
3.500000E-8	1.718219E-3
3.510000E-8	1.456113E-3
3.520000E-8	9.473191E-4
3.530000E-8	3.802797E-4
3.540000E-8	6.164121E-5
3.550000E-8	-3.086673E-5
3.560000E-8	1.370181E-4
3.570000E-8	4.676483E-4
3.580000E-8	8.188358E-4
3.590000E-8	9.096307E-4
3.600000E-8	7.674425E-4
3.610000E-8	4.916318E-4
3.620000E-8	2.826324E-4
3.630000E-8	1.027559E-4
3.640000E-8	8.391164E-5
3.650000E-8	2.946242E-4
3.660000E-8	6.697953E-4
3.670000E-8	1.122056E-3
3.680000E-8	1.322490E-3
3.690000E-8	1.241974E-3
3.700000E-8	9.113438E-4
3.710000E-8	4.385254E-4
3.720000E-8	-4.457161E-5
3.730000E-8	-3.032512E-4
3.740000E-8	-2.501448E-4
3.750000E-8	1.113214E-4
3.760000E-8	6.629428E-4
3.770000E-8	1.055245E-3
3.780000E-8	1.235122E-3
3.790000E-8	1.091220E-3
3.800000E-8	7.434590E-4
3.810000E-8	2.894848E-4
3.820000E-8	-1.045305E-4
3.830000E-8	-3.580707E-4
3.840000E-8	-3.991854E-4
3.850000E-8	-3.101037E-4
3.860000E-8	-3.066774E-4
3.870000E-8	-1.867597E-4
3.880000E-8	-1.524975E-4
3.890000E-8	1.538724E-5
3.900000E-8	1.986900E-4
3.910000E-8	3.802797E-4
3.920000E-8	6.800739E-4
3.930000E-8	8.633767E-4
3.940000E-8	8.873602E-4
3.950000E-8	7.280410E-4
3.960000E-8	3.854190E-4
3.970000E-8	-1.743859E-6
3.980000E-8	-3.289479E-4
3.990000E-8	-3.306610E-4
4.000000E-8	-1.302271E-4
4.010000E-8	3.237470E-4
4.020000E-8	8.102703E-4
4.030000E-8	1.139187E-3
4.040000E-8	1.240261E-3
4.050000E-8	1.134048E-3
4.060000E-8	8.685160E-4
4.070000E-8	5.087629E-4
4.080000E-8	2.363784E-4
4.090000E-8	3.765767E-5
4.100000E-8	3.937078E-5
4.110000E-8	1.918376E-4
4.120000E-8	5.258940E-4
4.130000E-8	9.147700E-4
4.140000E-8	1.182015E-3
4.150000E-8	1.164884E-3
4.160000E-8	9.096307E-4
4.170000E-8	5.087629E-4
4.180000E-8	8.562475E-5
4.190000E-8	-1.901860E-4
4.200000E-8	-1.764811E-4
4.210000E-8	-1.030941E-5
4.220000E-8	2.911980E-4
4.230000E-8	6.046971E-4
4.240000E-8	8.171227E-4
4.250000E-8	9.558846E-4
4.260000E-8	1.036401E-3
4.270000E-8	1.166597E-3
4.280000E-8	1.353326E-3
4.290000E-8	1.468105E-3
4.300000E-8	1.579457E-3
4.310000E-8	1.635989E-3
4.320000E-8	1.872398E-3
4.330000E-8	2.072832E-3
4.340000E-8	2.007734E-3
4.350000E-8	1.879251E-3
4.360000E-8	1.615432E-3
4.370000E-8	1.259105E-3
4.380000E-8	9.250487E-4
4.390000E-8	8.205489E-4
4.400000E-8	9.353273E-4
4.410000E-8	1.118630E-3
4.420000E-8	1.344761E-3
4.430000E-8	1.397867E-3
4.440000E-8	1.291654E-3
4.450000E-8	9.695895E-4
4.460000E-8	5.498776E-4
4.470000E-8	2.449440E-4
4.480000E-8	1.387312E-4
4.490000E-8	3.562961E-4
4.500000E-8	7.623032E-4
4.510000E-8	1.295080E-3
4.520000E-8	1.742202E-3
4.530000E-8	1.743915E-3
4.540000E-8	1.312212E-3
4.550000E-8	5.515907E-4
4.560000E-8	-9.939113E-5
4.570000E-8	-3.717756E-4
4.580000E-8	-2.073171E-4
4.590000E-8	2.141080E-4
4.600000E-8	8.205489E-4
4.610000E-8	1.262531E-3
4.620000E-8	1.512645E-3
4.630000E-8	1.403006E-3
4.640000E-8	1.176876E-3
4.650000E-8	8.496718E-4
4.660000E-8	5.738611E-4
4.670000E-8	3.117553E-4
4.680000E-8	3.288864E-4
4.690000E-8	4.522303E-4
4.700000E-8	8.736554E-4
4.710000E-8	1.353326E-3
4.720000E-8	1.771325E-3
4.730000E-8	1.947775E-3
4.740000E-8	1.952915E-3
4.750000E-8	1.822718E-3
4.760000E-8	1.713079E-3
4.770000E-8	1.620571E-3
4.780000E-8	1.630850E-3
4.790000E-8	1.617145E-3
4.800000E-8	1.531490E-3
4.810000E-8	1.289941E-3
4.820000E-8	9.027782E-4
4.830000E-8	4.522303E-4
4.840000E-8	7.363298E-5
4.850000E-8	-1.542107E-4
4.860000E-8	-2.227351E-4
4.870000E-8	-2.278744E-4
4.880000E-8	-8.911247E-5
4.890000E-8	2.909212E-5
4.900000E-8	1.781327E-4
4.910000E-8	1.952638E-4
4.920000E-8	2.637882E-4
4.930000E-8	3.511568E-4
4.940000E-8	4.933449E-4
4.950000E-8	7.143361E-4
4.960000E-8	9.832944E-4
4.970000E-8	1.272810E-3
4.980000E-8	1.411572E-3
4.990000E-8	1.313925E-3
5.000000E-8	1.022696E-3
5.010000E-8	7.674425E-4
5.020000E-8	5.087629E-4
5.030000E-8	4.350992E-4
5.040000E-8	5.173285E-4
5.050000E-8	8.548111E-4
5.060000E-8	1.144327E-3
5.070000E-8	1.401293E-3
5.080000E-8	1.521211E-3
5.090000E-8	1.478383E-3
5.100000E-8	1.392728E-3
5.110000E-8	1.370457E-3
5.120000E-8	1.313925E-3
5.130000E-8	1.240261E-3
5.140000E-8	1.123769E-3
5.150000E-8	8.530980E-4
5.160000E-8	6.526642E-4
5.170000E-8	5.892791E-4
5.180000E-8	5.001974E-4
5.190000E-8	5.875660E-4
5.200000E-8	7.554508E-4
5.210000E-8	8.034178E-4
5.220000E-8	6.475248E-4
5.230000E-8	2.346653E-4
5.240000E-8	-2.535710E-4
5.250000E-8	-6.236028E-4
5.260000E-8	-7.812089E-4
5.270000E-8	-6.801354E-4
5.280000E-8	-2.758415E-4
5.290000E-8	2.432309E-4
5.300000E-8	7.451721E-4
5.310000E-8	1.014130E-3
5.320000E-8	1.094647E-3
5.330000E-8	9.113438E-4
5.340000E-8	6.184020E-4
5.350000E-8	2.398047E-4
5.360000E-8	6.678054E-5
5.370000E-8	-3.600606E-5
5.380000E-8	3.937078E-5
5.390000E-8	1.250263E-4
5.400000E-8	1.610016E-4
5.410000E-8	5.650188E-5
5.420000E-8	-5.485027E-5
5.430000E-8	-5.313716E-5
5.440000E-8	1.969769E-4
5.450000E-8	6.321068E-4
5.460000E-8	1.110065E-3
5.470000E-8	1.505793E-3
5.480000E-8	1.534916E-3
5.490000E-8	1.288228E-3
5.500000E-8	1.031261E-3
5.510000E-8	8.753685E-4
5.520000E-8	8.342538E-4
5.530000E-8	8.462456E-4
5.540000E-8	8.359669E-4
5.550000E-8	6.715084E-4
5.560000E-8	4.196812E-4
5.570000E-8	2.706406E-4
5.580000E-8	3.631486E-4
5.590000E-8	7.297541E-4
5.600000E-8	9.781551E-4
5.610000E-8	1.039827E-3
5.620000E-8	7.571639E-4
5.630000E-8	3.751403E-4
5.640000E-8	2.106818E-4
5.650000E-8	3.717141E-4
5.660000E-8	9.575977E-4
5.670000E-8	1.678817E-3
5.680000E-8	2.137931E-3
5.690000E-8	2.196176E-3
5.700000E-8	1.903234E-3
5.710000E-8	1.281376E-3
5.720000E-8	7.280410E-4
5.730000E-8	3.186077E-4
5.740000E-8	2.809193E-4
5.750000E-8	5.173285E-4
5.760000E-8	9.610240E-4
5.770000E-8	1.243687E-3
5.780000E-8	1.437269E-3
5.790000E-8	1.346474E-3
5.800000E-8	1.014130E-3
5.810000E-8	5.841398E-4
5.820000E-8	2.158211E-4
5.830000E-8	-3.429295E-5
5.840000E-8	-4.457161E-5
5.850000E-8	1.729934E-4
5.860000E-8	4.642221E-4
5.870000E-8	6.869264E-4
5.880000E-8	7.725819E-4
5.890000E-8	6.869264E-4
5.900000E-8	5.601562E-4
5.910000E-8	4.008370E-4
5.920000E-8	3.425913E-4
5.930000E-8	4.385254E-4
5.940000E-8	7.229017E-4
5.950000E-8	1.000425E-3
5.960000E-8	1.170023E-3
5.970000E-8	1.209425E-3
5.980000E-8	1.137474E-3
5.990000E-8	1.000425E-3
6.000000E-8	8.873602E-4
6.010000E-8	8.342538E-4
6.020000E-8	8.051310E-4
6.030000E-8	7.879999E-4
6.040000E-8	7.742950E-4
6.050000E-8	6.749346E-4
6.060000E-8	6.972050E-4
6.070000E-8	8.256883E-4
6.080000E-8	8.017047E-4
6.090000E-8	6.560904E-4
6.100000E-8	4.916318E-4
6.110000E-8	3.854190E-4
6.120000E-8	4.642221E-4
6.130000E-8	5.567300E-4
6.140000E-8	6.972050E-4
6.150000E-8	8.428194E-4
6.160000E-8	8.239752E-4
6.170000E-8	5.652956E-4
6.180000E-8	3.785666E-4
6.190000E-8	2.312391E-4
6.200000E-8	2.620751E-4
6.210000E-8	4.779269E-4
6.220000E-8	7.691556E-4
6.230000E-8	8.650898E-4
6.240000E-8	9.336142E-4
6.250000E-8	9.473191E-4
6.260000E-8	9.610240E-4
6.270000E-8	8.633767E-4
6.280000E-8	8.770816E-4
6.290000E-8	8.068441E-4
6.300000E-8	6.355331E-4
6.310000E-8	3.597224E-4
6.320000E-8	1.884114E-4
6.330000E-8	1.866982E-4
6.340000E-8	3.049028E-4
6.350000E-8	4.248205E-4
6.360000E-8	4.213943E-4
6.370000E-8	3.186077E-4
6.380000E-8	1.198870E-4
6.390000E-8	-3.429295E-5
6.400000E-8	2.395279E-5
6.410000E-8	2.963373E-4
6.420000E-8	7.623032E-4
6.430000E-8	1.146040E-3
6.440000E-8	1.473244E-3
6.450000E-8	1.420137E-3
6.460000E-8	1.360179E-3
6.470000E-8	1.195720E-3
6.480000E-8	1.199146E-3
6.490000E-8	1.236835E-3
6.500000E-8	1.461252E-3
6.510000E-8	1.459539E-3
6.520000E-8	1.392728E-3
6.530000E-8	1.034688E-3
6.540000E-8	5.378858E-4
6.550000E-8	-1.473582E-4
6.560000E-8	-4.694229E-4
6.570000E-8	-4.111772E-4
6.580000E-8	3.395471E-6
6.590000E-8	7.605901E-4
6.600000E-8	1.543481E-3
6.610000E-8	2.026578E-3
6.620000E-8	2.088250E-3
6.630000E-8	1.850128E-3
6.640000E-8	1.466391E-3
6.650000E-8	1.142614E-3
6.660000E-8	9.764420E-4
6.670000E-8	1.104925E-3
6.680000E-8	1.325916E-3
6.690000E-8	1.697661E-3
6.700000E-8	1.884390E-3
6.710000E-8	1.942636E-3
6.720000E-8	1.863833E-3
6.730000E-8	1.675391E-3
6.740000E-8	1.512645E-3
6.750000E-8	1.296794E-3
6.760000E-8	1.130622E-3
6.770000E-8	9.216224E-4
6.780000E-8	7.862867E-4
6.790000E-8	5.704349E-4
6.800000E-8	3.186077E-4
6.810000E-8	2.072556E-4
6.820000E-8	1.524360E-4
6.830000E-8	1.661409E-4
6.840000E-8	1.387312E-4
6.850000E-8	2.395279E-5
6.860000E-8	-1.182353E-4
6.870000E-8	-1.233747E-4
6.880000E-8	4.108389E-5
6.890000E-8	4.522303E-4
6.900000E-8	1.026122E-3
6.910000E-8	1.480096E-3
6.920000E-8	1.576030E-3
6.930000E-8	1.286515E-3
6.940000E-8	8.685160E-4
6.950000E-8	4.059763E-4
6.960000E-8	1.198870E-4
6.970000E-8	1.367413E-5
6.980000E-8	7.877231E-5
6.990000E-8	1.712803E-4
7.000000E-8	2.346653E-4
7.010000E-8	2.672144E-4
7.020000E-8	3.785666E-4
7.030000E-8	5.310334E-4
7.040000E-8	6.766477E-4
7.050000E-8	7.725819E-4
7.060000E-8	9.730157E-4
7.070000E-8	1.192294E-3
7.080000E-8	1.533203E-3
7.090000E-8	1.752481E-3
7.100000E-8	1.779891E-3
7.110000E-8	1.462965E-3
7.120000E-8	9.404666E-4
7.130000E-8	4.368123E-4
7.140000E-8	2.723537E-4
7.150000E-8	4.145419E-4
7.160000E-8	9.336142E-4
7.170000E-8	1.480096E-3
7.180000E-8	1.682243E-3
7.190000E-8	1.478383E-3
7.200000E-8	1.012417E-3
7.210000E-8	6.355331E-4
7.220000E-8	5.361727E-4
7.230000E-8	7.023444E-4
7.240000E-8	9.901468E-4
7.250000E-8	1.228269E-3
7.260000E-8	1.178589E-3
7.270000E-8	8.787947E-4
7.280000E-8	4.573696E-4
7.290000E-8	8.562475E-5
7.300000E-8	-1.559238E-4
7.310000E-8	-3.443659E-4
7.320000E-8	-3.923329E-4
7.330000E-8	-3.957592E-4
7.340000E-8	-1.833335E-4
7.350000E-8	4.622322E-5
7.360000E-8	1.404443E-4
7.370000E-8	5.650188E-5
7.380000E-8	-1.593500E-4
7.390000E-8	-4.265951E-4
7.400000E-8	-6.218897E-4
7.410000E-8	-5.602177E-4
7.420000E-8	-2.484317E-4
7.430000E-8	2.586489E-4
7.440000E-8	8.068441E-4
7.450000E-8	1.170023E-3
7.460000E-8	1.221417E-3
7.470000E-8	1.065524E-3
7.480000E-8	7.811474E-4
7.490000E-8	4.693614E-4
7.500000E-8	3.083291E-4
7.510000E-8	3.682879E-4
7.520000E-8	7.006312E-4
7.530000E-8	1.000425E-3
7.540000E-8	1.140901E-3
7.550000E-8	9.730157E-4
7.560000E-8	5.550169E-4
7.570000E-8	9.247719E-5
7.580000E-8	-3.512183E-4
7.590000E-8	-4.146034E-4
7.600000E-8	-1.799073E-4
7.610000E-8	2.295260E-4
7.620000E-8	5.927053E-4
7.630000E-8	6.184020E-4
7.640000E-8	3.357388E-4
7.650000E-8	-1.079567E-4
7.660000E-8	-5.396604E-4
7.670000E-8	-8.120449E-4
7.680000E-8	-8.120449E-4
7.690000E-8	-7.109714E-4
7.700000E-8	-4.146034E-4
7.710000E-8	1.682361E-6
7.720000E-8	4.333861E-4
7.730000E-8	7.828605E-4
7.740000E-8	9.987124E-4
7.750000E-8	1.014130E-3
7.760000E-8	9.832944E-4
7.770000E-8	9.079176E-4
7.780000E-8	8.548111E-4
7.790000E-8	8.119834E-4
7.800000E-8	9.438929E-4
7.810000E-8	1.146040E-3
7.820000E-8	1.243687E-3
7.830000E-8	1.142614E-3
7.840000E-8	8.907865E-4
7.850000E-8	5.687218E-4
7.860000E-8	2.689275E-4
7.870000E-8	2.566590E-5
7.880000E-8	-9.939113E-5
7.890000E-8	-4.971094E-5
7.900000E-8	6.164121E-5
7.910000E-8	1.147476E-4
7.920000E-8	1.267394E-4
7.930000E-8	6.678054E-5
7.940000E-8	-7.540759E-5
7.950000E-8	-1.507844E-4
7.960000E-8	-1.302271E-4
7.970000E-8	-3.074933E-8
7.980000E-8	1.712803E-4
7.990000E-8	3.254602E-4
8.000000E-8	5.190416E-4
8.010000E-8	7.160492E-4
8.020000E-8	9.832944E-4
8.030000E-8	1.269384E-3
8.040000E-8	1.480096E-3
8.050000E-8	1.534916E-3
8.060000E-8	1.452687E-3
8.070000E-8	1.281376E-3
8.080000E-8	1.036401E-3
8.090000E-8	8.530980E-4
8.100000E-8	7.948523E-4
8.110000E-8	6.852133E-4
8.120000E-8	6.663690E-4
8.130000E-8	7.657294E-4
8.140000E-8	9.593109E-4
8.150000E-8	1.332769E-3
8.160000E-8	1.908374E-3
8.170000E-8	2.465135E-3
8.180000E-8	2.788912E-3
8.190000E-8	2.800904E-3
8.200000E-8	2.561069E-3
8.210000E-8	2.156775E-3
8.220000E-8	1.850128E-3
8.230000E-8	1.738776E-3
8.240000E-8	1.718219E-3
8.250000E-8	1.793595E-3
8.260000E-8	1.824431E-3
8.270000E-8	1.805587E-3
8.280000E-8	1.827858E-3
8.290000E-8	1.838136E-3
8.300000E-8	1.762759E-3
8.310000E-8	1.596588E-3
8.320000E-8	1.281376E-3
8.330000E-8	7.828605E-4
8.340000E-8	3.203208E-4
8.350000E-8	8.534801E-6
8.360000E-8	-3.943228E-5
8.370000E-8	2.946242E-4
8.380000E-8	8.359669E-4
8.390000E-8	1.382449E-3
8.400000E-8	1.685669E-3
8.410000E-8	1.769612E-3
8.420000E-8	1.646268E-3
8.430000E-8	1.349900E-3
8.440000E-8	1.055245E-3
8.450000E-8	8.342538E-4
8.460000E-8	6.886395E-4
8.470000E-8	5.892791E-4
8.480000E-8	4.231074E-4
8.490000E-8	2.141080E-4
8.500000E-8	8.219853E-5
8.510000E-8	-3.086673E-5
8.520000E-8	6.164121E-5
8.530000E-8	3.682879E-4
8.540000E-8	6.766477E-4
8.550000E-8	8.685160E-4
8.560000E-8	8.959258E-4
8.570000E-8	7.040575E-4
8.580000E-8	5.858529E-4
8.590000E-8	3.271733E-4
8.600000E-8	1.575754E-4
8.610000E-8	1.832720E-4
8.620000E-8	3.271733E-4
8.630000E-8	4.899187E-4
8.640000E-8	6.509511E-4
8.650000E-8	7.074837E-4
8.660000E-8	7.657294E-4
8.670000E-8	8.530980E-4
8.680000E-8	1.048393E-3
8.690000E-8	1.301933E-3
8.700000E-8	1.492088E-3
8.710000E-8	1.630850E-3
8.720000E-8	1.493801E-3
8.730000E-8	1.151179E-3
8.740000E-8	7.211886E-4
8.750000E-8	2.946242E-4
8.760000E-8	1.301656E-4
8.770000E-8	4.964944E-5
8.780000E-8	2.706406E-4
8.790000E-8	5.875660E-4
8.800000E-8	7.965654E-4
8.810000E-8	8.393932E-4
8.820000E-8	8.051310E-4
8.830000E-8	8.136965E-4
8.840000E-8	8.256883E-4
8.850000E-8	9.815813E-4
8.860000E-8	1.079229E-3
8.870000E-8	1.137474E-3
8.880000E-8	8.582374E-4
8.890000E-8	3.323126E-4
8.900000E-8	-2.415793E-4
8.910000E-8	-6.047586E-4
8.920000E-8	-5.602177E-4
8.930000E-8	-2.056040E-4
8.940000E-8	4.556565E-4
8.950000E-8	9.610240E-4
8.960000E-8	1.236835E-3
8.970000E-8	1.183728E-3
8.980000E-8	9.541715E-4
8.990000E-8	7.811474E-4
9.000000E-8	6.920657E-4
9.010000E-8	7.605901E-4
9.020000E-8	8.119834E-4
9.030000E-8	8.685160E-4
9.040000E-8	7.520245E-4
9.050000E-8	6.149757E-4
9.060000E-8	4.350992E-4
9.070000E-8	4.265336E-4
9.080000E-8	3.134684E-4
9.090000E-8	2.072556E-4
9.100000E-8	2.566590E-5
9.110000E-8	-2.261613E-4
9.120000E-8	-3.101037E-4
9.130000E-8	-2.227351E-4
9.140000E-8	8.562475E-5
9.150000E-8	5.156154E-4
9.160000E-8	7.897130E-4
9.170000E-8	8.736554E-4
9.180000E-8	7.760081E-4
9.190000E-8	4.316730E-4
9.200000E-8	1.078952E-4
9.210000E-8	-1.987515E-4
9.220000E-8	-3.889067E-4
9.230000E-8	-5.619308E-4
9.240000E-8	-5.396604E-4
9.250000E-8	-4.934064E-4
9.260000E-8	-3.769150E-4
9.270000E-8	-1.422189E-4
9.280000E-8	-3.074933E-8
9.290000E-8	7.534609E-5
9.300000E-8	-1.030941E-5
9.310000E-8	-2.432924E-4
9.320000E-8	-5.447997E-4
9.330000E-8	-4.865540E-4
9.340000E-8	-1.199484E-4
9.350000E-8	5.207547E-4
9.360000E-8	1.166597E-3
9.370000E-8	1.522924E-3
9.380000E-8	1.404719E-3
9.390000E-8	8.376800E-4
9.400000E-8	2.089687E-4
9.410000E-8	-3.015381E-4
9.420000E-8	-3.323741E-4
9.430000E-8	1.764196E-4
9.440000E-8	8.085572E-4
9.450000E-8	1.521211E-3
9.460000E-8	1.868972E-3
9.470000E-8	1.855267E-3
9.480000E-8	1.507506E-3
9.490000E-8	9.884337E-4
9.500000E-8	4.745007E-4
9.510000E-8	1.627147E-4
9.520000E-8	1.682361E-6
9.530000E-8	-3.429295E-5
9.540000E-8	1.250263E-4
9.550000E-8	2.706406E-4
9.560000E-8	3.049028E-4
9.570000E-8	2.586489E-4
9.580000E-8	1.678540E-4
9.590000E-8	-2.401429E-5
9.600000E-8	-8.568625E-5
9.610000E-8	-1.850466E-4
9.620000E-8	-1.387927E-4
9.630000E-8	7.020676E-5
9.640000E-8	2.963373E-4
9.650000E-8	5.070498E-4
9.660000E-8	5.875660E-4
9.670000E-8	4.385254E-4
9.680000E-8	1.027559E-4
9.690000E-8	-2.844070E-4
9.700000E-8	-4.625705E-4
9.710000E-8	-4.094640E-4
9.720000E-8	-4.114539E-5
9.730000E-8	4.693614E-4
9.740000E-8	8.787947E-4
9.750000E-8	1.036401E-3
9.760000E-8	8.513849E-4
9.770000E-8	5.293202E-4
9.780000E-8	4.059763E-4
9.790000E-8	6.064102E-4
9.800000E-8	1.110065E-3
9.810000E-8	1.577744E-3
9.820000E-8	1.781604E-3
9.830000E-8	1.680530E-3
9.840000E-8	1.048393E-3
9.850000E-8	2.843455E-4
9.860000E-8	-4.608573E-4
9.870000E-8	-7.966269E-4
9.880000E-8	-7.281025E-4
9.890000E-8	-3.580707E-4
9.900000E-8	3.374519E-4
9.910000E-8	1.067237E-3
9.920000E-8	1.702801E-3
9.930000E-8	2.100242E-3
9.940000E-8	2.161914E-3
9.950000E-8	1.966620E-3
9.960000E-8	1.612006E-3
9.970000E-8	1.152892E-3
9.980000E-8	8.376800E-4
9.990000E-8	7.263279E-4
1.000000E-7	8.102703E-4
1.001000E-7	9.147700E-4
1.002000E-7	9.918599E-4
1.003000E-7	8.736554E-4
1.004000E-7	5.961315E-4
1.005000E-7	1.678540E-4
1.006000E-7	-1.713418E-4
1.007000E-7	-4.094640E-4
1.008000E-7	-2.484317E-4
1.009000E-7	2.346653E-4
1.010000E-7	8.685160E-4
1.011000E-7	1.387588E-3
1.012000E-7	1.605153E-3
1.013000E-7	1.509219E-3
1.014000E-7	1.231695E-3
1.015000E-7	8.959258E-4
1.016000E-7	7.451721E-4
1.017000E-7	7.623032E-4
1.018000E-7	9.233355E-4
1.019000E-7	1.142614E-3
1.020000E-7	1.308785E-3
1.021000E-7	1.343047E-3
1.022000E-7	1.229982E-3
1.023000E-7	1.048393E-3
1.024000E-7	8.154096E-4
1.025000E-7	5.961315E-4
1.026000E-7	4.830663E-4
1.027000E-7	4.436647E-4
1.028000E-7	4.248205E-4
1.029000E-7	2.826324E-4
1.030000E-7	1.335918E-4
1.031000E-7	-1.542107E-4
1.032000E-7	-2.998250E-4
1.033000E-7	-3.340872E-4
1.034000E-7	-2.313006E-4
1.035000E-7	-1.610631E-4
1.036000E-7	-2.038908E-4
1.037000E-7	-2.364399E-4
1.038000E-7	-1.610631E-4
1.039000E-7	5.821499E-5
1.040000E-7	5.481645E-4
1.041000E-7	1.005565E-3
1.042000E-7	1.356752E-3
1.043000E-7	1.404719E-3
1.044000E-7	1.247113E-3
1.045000E-7	1.046679E-3
1.046000E-7	8.822209E-4
1.047000E-7	8.873602E-4
1.048000E-7	9.850075E-4
1.049000E-7	1.048393E-3
1.050000E-7	9.370404E-4
1.051000E-7	7.605901E-4
1.052000E-7	4.470910E-4
1.053000E-7	2.278129E-4
1.054000E-7	-5.142405E-5
1.055000E-7	-2.861201E-4
1.056000E-7	-3.495052E-4
1.057000E-7	-2.963988E-4
1.058000E-7	-1.030941E-5
1.059000E-7	4.402385E-4
1.060000E-7	8.171227E-4
1.061000E-7	1.075802E-3
1.062000E-7	1.140901E-3
1.063000E-7	9.027782E-4
1.064000E-7	3.854190E-4
1.065000E-7	-2.193088E-4
1.066000E-7	-8.051925E-4
1.067000E-7	-1.312273E-3
1.068000E-7	-1.385937E-3
1.069000E-7	-1.111839E-3
1.070000E-7	-4.865540E-4
1.071000E-7	8.219853E-5
1.072000E-7	6.303937E-4
1.073000E-7	8.633767E-4
1.074000E-7	7.879999E-4
1.075000E-7	1.969769E-4
1.076000E-7	-4.231689E-4
1.077000E-7	-8.428809E-4
1.078000E-7	-7.709303E-4
1.079000E-7	-2.981119E-4
1.080000E-7	4.162550E-4
1.081000E-7	1.113491E-3
1.082000E-7	1.552047E-3
1.083000E-7	1.488662E-3
1.084000E-7	9.336142E-4
1.085000E-7	1.695671E-4
1.086000E-7	-4.728491E-4
1.087000E-7	-7.537992E-4
1.088000E-7	-6.578650E-4
1.089000E-7	-2.998250E-4
1.090000E-7	1.267394E-4
1.091000E-7	5.378858E-4
1.092000E-7	7.331803E-4
1.093000E-7	6.389593E-4
1.094000E-7	4.213943E-4
1.095000E-7	2.929111E-4
1.096000E-7	2.672144E-4
1.097000E-7	5.704349E-4
1.098000E-7	9.404666E-4
1.099000E-7	1.367031E-3
1.100000E-7	1.582883E-3
1.101000E-7	1.512645E-3
1.102000E-7	1.166597E-3
1.103000E-7	7.023444E-4
1.104000E-7	2.312391E-4
1.105000E-7	-9.425180E-5
1.106000E-7	-2.244482E-4
1.107000E-7	-1.353664E-4
1.108000E-7	1.130345E-4
1.109000E-7	5.207547E-4
1.110000E-7	1.036401E-3
1.111000E-7	1.629137E-3
1.112000E-7	1.994029E-3
1.113000E-7	2.045423E-3
1.114000E-7	1.802161E-3
1.115000E-7	1.336195E-3
1.116000E-7	9.730157E-4
1.117000E-7	6.817870E-4
1.118000E-7	5.567300E-4
1.119000E-7	4.967712E-4
1.120000E-7	4.350992E-4
1.121000E-7	1.524360E-4
1.122000E-7	-6.341582E-5
1.123000E-7	-1.439320E-4
1.124000E-7	-1.030941E-5
1.125000E-7	3.305995E-4
1.126000E-7	7.965654E-4
1.127000E-7	1.098073E-3
1.128000E-7	1.289941E-3
1.129000E-7	1.211138E-3
1.130000E-7	9.661633E-4
1.131000E-7	6.526642E-4
1.132000E-7	3.031897E-4
1.133000E-7	-3.600606E-5
1.134000E-7	-4.522918E-4
1.135000E-7	-7.623647E-4
1.136000E-7	-8.857086E-4
1.137000E-7	-8.034793E-4
1.138000E-7	-4.694229E-4
1.139000E-7	-3.771917E-5
1.140000E-7	4.830663E-4
1.141000E-7	8.976389E-4
1.142000E-7	1.082655E-3
1.143000E-7	8.668029E-4
1.144000E-7	2.929111E-4
1.145000E-7	-2.741284E-4
1.146000E-7	-7.332418E-4
1.147000E-7	-8.069056E-4
1.148000E-7	-3.974723E-4
1.149000E-7	3.682879E-4
1.150000E-7	1.096360E-3
1.151000E-7	1.509219E-3
1.152000E-7	1.387588E-3
1.153000E-7	9.678764E-4
1.154000E-7	3.168946E-4
1.155000E-7	-8.397314E-5
1.156000E-7	-2.655628E-4
1.157000E-7	-1.250878E-4
1.158000E-7	2.398047E-4
1.159000E-7	5.533038E-4
1.160000E-7	7.091968E-4
1.161000E-7	8.325407E-4
1.162000E-7	1.041540E-3
1.163000E-7	1.185441E-3
1.164000E-7	1.430416E-3
1.165000E-7	1.706227E-3
1.166000E-7	1.767899E-3
1.167000E-7	1.531490E-3
1.168000E-7	1.008991E-3
1.169000E-7	3.956977E-4
1.170000E-7	-9.767802E-5
1.171000E-7	-4.317345E-4
1.172000E-7	-3.238085E-4
1.173000E-7	-6.883189E-6
1.174000E-7	4.693614E-4
1.175000E-7	8.839340E-4
1.176000E-7	1.096360E-3
1.177000E-7	1.132335E-3
1.178000E-7	1.132335E-3
1.179000E-7	1.005565E-3
1.180000E-7	7.400328E-4
1.181000E-7	4.128288E-4
1.182000E-7	1.524360E-4
1.183000E-7	-1.887496E-5
1.184000E-7	9.419030E-5
1.185000E-7	2.894848E-4
1.186000E-7	5.995578E-4
1.187000E-7	8.428194E-4
1.188000E-7	9.541715E-4
1.189000E-7	9.370404E-4
1.190000E-7	8.736554E-4
1.191000E-7	8.239752E-4
1.192000E-7	7.314672E-4
1.193000E-7	6.166889E-4
1.194000E-7	4.522303E-4
1.195000E-7	2.500833E-4
1.196000E-7	-2.915362E-5
1.197000E-7	-3.203823E-4
1.198000E-7	-4.608573E-4
1.199000E-7	-3.906198E-4
1.200000E-7	-1.096698E-4
1.201000E-7	3.751403E-4
1.202000E-7	9.798682E-4
1.203000E-7	1.505793E-3
1.204000E-7	1.803874E-3
1.205000E-7	1.730210E-3
1.206000E-7	1.331056E-3
1.207000E-7	9.319011E-4
1.208000E-7	6.149757E-4
1.209000E-7	6.321068E-4
1.210000E-7	7.931392E-4
1.211000E-7	8.599505E-4
1.212000E-7	8.068441E-4
1.213000E-7	6.578035E-4
1.214000E-7	4.727876E-4
1.215000E-7	3.271733E-4
1.216000E-7	2.672144E-4
1.217000E-7	2.672144E-4
1.218000E-7	4.488041E-4
1.219000E-7	5.961315E-4
1.220000E-7	8.462456E-4
1.221000E-7	9.747288E-4
1.222000E-7	1.194007E-3
1.223000E-7	1.115204E-3
1.224000E-7	7.931392E-4
1.225000E-7	2.946242E-4
1.226000E-7	1.196102E-5
1.227000E-7	1.196102E-5
1.228000E-7	4.350992E-4
1.229000E-7	1.091220E-3
1.230000E-7	1.728497E-3
1.231000E-7	2.060841E-3
1.232000E-7	2.007734E-3
1.233000E-7	1.694235E-3
1.234000E-7	1.367031E-3
1.235000E-7	1.228269E-3
1.236000E-7	1.380736E-3
1.237000E-7	1.613719E-3
1.238000E-7	1.762759E-3
1.239000E-7	1.663399E-3
1.240000E-7	1.223130E-3
1.241000E-7	6.903526E-4
1.242000E-7	1.113214E-4
1.243000E-7	-1.953253E-4
1.244000E-7	-3.032512E-4
1.245000E-7	8.219853E-5
1.246000E-7	6.406724E-4
1.247000E-7	1.091220E-3
1.248000E-7	1.300220E-3
1.249000E-7	1.171736E-3
1.250000E-7	6.749346E-4
1.251000E-7	1.113214E-4
1.252000E-7	-1.833335E-4
1.253000E-7	-2.073171E-4
1.254000E-7	1.096083E-4
1.255000E-7	7.023444E-4
1.256000E-7	1.137474E-3
1.257000E-7	1.351613E-3
1.258000E-7	1.274523E-3
1.259000E-7	9.713026E-4
1.260000E-7	6.835001E-4
1.261000E-7	5.310334E-4
1.262000E-7	5.310334E-4
1.263000E-7	5.413120E-4
1.264000E-7	3.357388E-4
1.265000E-7	1.881346E-5
1.266000E-7	-2.158826E-4
1.267000E-7	-3.443659E-4
1.268000E-7	-1.816204E-4
1.269000E-7	7.191987E-5
1.270000E-7	3.443044E-4
1.271000E-7	4.059763E-4
1.272000E-7	2.398047E-4
1.273000E-7	-8.397314E-5
1.274000E-7	-3.597839E-4
1.275000E-7	-3.666363E-4
1.276000E-7	2.395279E-5
1.277000E-7	5.344596E-4
1.278000E-7	9.798682E-4
1.279000E-7	1.079229E-3
1.280000E-7	8.102703E-4
1.281000E-7	4.402385E-4
1.282000E-7	2.449440E-4
1.283000E-7	3.203208E-4
1.284000E-7	6.389593E-4
1.285000E-7	1.115204E-3
1.286000E-7	1.528063E-3
1.287000E-7	1.644555E-3
1.288000E-7	1.586309E-3
1.289000E-7	1.257392E-3
1.290000E-7	9.969993E-4
1.291000E-7	6.269675E-4
1.292000E-7	2.963373E-4
1.293000E-7	5.992810E-5
1.294000E-7	-1.353664E-4
1.295000E-7	-1.730549E-4
1.296000E-7	-1.250878E-4
1.297000E-7	3.765767E-5
1.298000E-7	1.747065E-4
1.299000E-7	3.134684E-4
1.300000E-7	4.830663E-4
1.301000E-7	6.578035E-4
1.302000E-7	6.937788E-4
1.303000E-7	6.646559E-4
1.304000E-7	6.029840E-4
1.305000E-7	5.156154E-4
1.306000E-7	2.517964E-4
1.307000E-7	9.932963E-5
1.308000E-7	-8.596299E-6
1.309000E-7	7.705920E-5
1.310000E-7	1.815589E-4
1.311000E-7	3.528699E-4
1.312000E-7	3.134684E-4
1.313000E-7	3.151815E-4
1.314000E-7	2.911980E-4
1.315000E-7	4.488041E-4
1.316000E-7	6.098364E-4
1.317000E-7	8.685160E-4
1.318000E-7	1.264244E-3
1.319000E-7	1.426990E-3
1.320000E-7	1.428703E-3
1.321000E-7	1.204286E-3
1.322000E-7	9.747288E-4
1.323000E-7	7.742950E-4
1.324000E-7	6.029840E-4
1.325000E-7	5.447382E-4
1.326000E-7	5.378858E-4
1.327000E-7	4.094025E-4
1.328000E-7	2.963373E-4
1.329000E-7	3.117553E-4
1.330000E-7	4.607958E-4
1.331000E-7	6.732215E-4
1.332000E-7	1.014130E-3
1.333000E-7	1.238548E-3
1.334000E-7	1.387588E-3
1.335000E-7	1.281376E-3
1.336000E-7	9.713026E-4
1.337000E-7	5.944184E-4
1.338000E-7	3.922714E-4
1.339000E-7	3.665748E-4
1.340000E-7	3.443044E-4
1.341000E-7	2.877717E-4
1.342000E-7	4.108389E-5
1.343000E-7	-3.940461E-4
1.344000E-7	-8.223236E-4
1.345000E-7	-1.106700E-3
1.346000E-7	-1.015905E-3
1.347000E-7	-5.002589E-4
1.348000E-7	2.500833E-4
1.349000E-7	8.822209E-4
1.350000E-7	1.163171E-3
1.351000E-7	1.096360E-3
1.352000E-7	7.640163E-4
1.353000E-7	4.042632E-4
1.354000E-7	2.278129E-4
1.355000E-7	3.186077E-4
1.356000E-7	4.967712E-4
1.357000E-7	6.475248E-4
1.358000E-7	6.046971E-4
1.359000E-7	3.956977E-4
1.360000E-7	1.061821E-4
1.361000E-7	-3.771917E-5
1.362000E-7	-4.628472E-5
1.363000E-7	2.466571E-4
1.364000E-7	6.269675E-4
1.365000E-7	1.041540E-3
1.366000E-7	1.462965E-3
1.367000E-7	1.615432E-3
1.368000E-7	1.860407E-3
1.369000E-7	1.982038E-3
1.370000E-7	2.069406E-3
1.371000E-7	1.915226E-3
1.372000E-7	1.543481E-3
1.373000E-7	9.713026E-4
1.374000E-7	3.734272E-4
1.375000E-7	-1.593500E-4
1.376000E-7	-4.026116E-4
1.377000E-7	-3.169561E-4
1.378000E-7	5.108581E-6
1.379000E-7	3.528699E-4
1.380000E-7	5.652956E-4
1.381000E-7	6.149757E-4
1.382000E-7	7.006312E-4
1.383000E-7	7.177623E-4
1.384000E-7	7.503114E-4
1.385000E-7	8.359669E-4
1.386000E-7	8.188358E-4
1.387000E-7	7.657294E-4
1.388000E-7	5.875660E-4
1.389000E-7	4.368123E-4
1.390000E-7	3.391650E-4
1.391000E-7	3.528699E-4
1.392000E-7	4.916318E-4
1.393000E-7	7.623032E-4
1.394000E-7	9.575977E-4
1.395000E-7	9.952862E-4
1.396000E-7	8.513849E-4
1.397000E-7	5.721480E-4
1.398000E-7	4.505172E-4
1.399000E-7	4.779269E-4
1.400000E-7	7.845736E-4
1.401000E-7	1.183728E-3
1.402000E-7	1.524637E-3
1.403000E-7	1.613719E-3
1.404000E-7	1.421851E-3
1.405000E-7	9.027782E-4
1.406000E-7	3.168946E-4
1.407000E-7	-8.911247E-5
1.408000E-7	-1.507844E-4
1.409000E-7	1.884114E-4
1.410000E-7	8.907865E-4
1.411000E-7	1.445834E-3
1.412000E-7	1.863833E-3
1.413000E-7	1.884390E-3
1.414000E-7	1.528063E-3
1.415000E-7	9.747288E-4
1.416000E-7	5.550169E-4
1.417000E-7	4.094025E-4
1.418000E-7	4.899187E-4
1.419000E-7	8.085572E-4
1.420000E-7	1.043253E-3
1.421000E-7	1.118630E-3
1.422000E-7	9.850075E-4
1.423000E-7	6.595166E-4
1.424000E-7	3.939846E-4
1.425000E-7	3.734272E-4
1.426000E-7	5.121891E-4
1.427000E-7	7.571639E-4
1.428000E-7	9.901468E-4
1.429000E-7	1.202572E-3
1.430000E-7	1.192294E-3
1.431000E-7	1.168310E-3
1.432000E-7	1.046679E-3
1.433000E-7	1.022696E-3
1.434000E-7	1.070663E-3
1.435000E-7	1.060384E-3
1.436000E-7	1.000425E-3
1.437000E-7	8.633767E-4
1.438000E-7	7.657294E-4
1.439000E-7	5.944184E-4
1.440000E-7	3.374519E-4
1.441000E-7	4.279700E-5
1.442000E-7	-2.004646E-4
1.443000E-7	-3.015381E-4
1.444000E-7	-3.512183E-4
1.445000E-7	-1.439320E-4
1.446000E-7	1.798458E-4
1.447000E-7	5.361727E-4
1.448000E-7	8.274014E-4
1.449000E-7	9.593109E-4
1.450000E-7	9.353273E-4
1.451000E-7	9.147700E-4
1.452000E-7	1.032975E-3
1.453000E-7	1.130622E-3
1.454000E-7	1.055245E-3
1.455000E-7	8.496718E-4
1.456000E-7	7.109099E-4
1.457000E-7	7.503114E-4
1.458000E-7	9.901468E-4
1.459000E-7	1.260818E-3
1.460000E-7	1.380736E-3
1.461000E-7	1.301933E-3
1.462000E-7	9.901468E-4
1.463000E-7	5.995578E-4
1.464000E-7	4.282468E-4
1.465000E-7	4.676483E-4
1.466000E-7	7.605901E-4
1.467000E-7	8.719422E-4
1.468000E-7	6.560904E-4
1.469000E-7	1.507229E-4
1.470000E-7	-3.734887E-4
1.471000E-7	-6.167504E-4
1.472000E-7	-3.871936E-4
1.473000E-7	2.175342E-4
1.474000E-7	9.952862E-4
1.475000E-7	1.584596E-3
1.476000E-7	1.886103E-3
1.477000E-7	1.779891E-3
1.478000E-7	1.471531E-3
1.479000E-7	1.168310E-3
1.480000E-7	1.029548E-3
1.481000E-7	1.026122E-3
1.482000E-7	1.082655E-3
1.483000E-7	1.086081E-3
1.484000E-7	1.017557E-3
1.485000E-7	9.575977E-4
1.486000E-7	6.629428E-4
1.487000E-7	4.299599E-4
1.488000E-7	3.888452E-4
1.489000E-7	4.847794E-4
1.490000E-7	5.892791E-4
1.491000E-7	6.372462E-4
1.492000E-7	5.978446E-4
1.493000E-7	5.019105E-4
1.494000E-7	3.665748E-4
1.495000E-7	1.781327E-4
1.496000E-7	1.455836E-4
1.497000E-7	3.477306E-4
1.498000E-7	6.475248E-4
1.499000E-7	9.490322E-4
1.500000E-7	1.012417E-3
1.501000E-7	6.954919E-4
1.502000E-7	2.963373E-4
1.503000E-7	-9.939113E-5
1.504000E-7	-2.210219E-4
1.505000E-7	-2.518579E-4
1.506000E-7	-1.250878E-4
1.507000E-7	1.216001E-4
1.508000E-7	3.922714E-4
1.509000E-7	6.920657E-4
1.510000E-7	9.507453E-4
1.511000E-7	1.149466E-3
1.512000E-7	1.168310E-3
1.513000E-7	1.046679E-3
1.514000E-7	7.383197E-4
1.515000E-7	4.385254E-4
1.516000E-7	4.111157E-4
1.517000E-7	7.434590E-4
1.518000E-7	1.476670E-3
1.519000E-7	2.223586E-3
1.520000E-7	2.792339E-3
1.521000E-7	2.835166E-3
1.522000E-7	2.194463E-3
1.523000E-7	1.231695E-3
1.524000E-7	1.678540E-4
1.525000E-7	-6.167504E-4
1.526000E-7	-9.336757E-4
1.527000E-7	-6.818485E-4
1.528000E-7	-1.370796E-4
1.529000E-7	3.751403E-4
1.530000E-7	7.451721E-4
1.531000E-7	8.034178E-4
1.532000E-7	6.029840E-4
1.533000E-7	3.374519E-4
1.534000E-7	5.821499E-5
1.535000E-7	5.136255E-5
1.536000E-7	2.911980E-4
1.537000E-7	7.280410E-4
1.538000E-7	1.267671E-3
1.539000E-7	1.793595E-3
1.540000E-7	2.000882E-3
1.541000E-7	1.800448E-3
1.542000E-7	1.264244E-3
1.543000E-7	4.727876E-4
1.544000E-7	-2.963988E-4
1.545000E-7	-7.281025E-4
1.546000E-7	-7.829220E-4
1.547000E-7	-5.191031E-4
1.548000E-7	5.650188E-5
1.549000E-7	5.755742E-4
1.550000E-7	1.003852E-3
1.551000E-7	1.152892E-3
1.552000E-7	1.103212E-3
1.553000E-7	9.113438E-4
1.554000E-7	6.218282E-4
1.555000E-7	6.269675E-4
1.556000E-7	6.458117E-4
1.557000E-7	8.616636E-4
1.558000E-7	9.832944E-4
1.559000E-7	1.020983E-3
1.560000E-7	7.674425E-4
1.561000E-7	3.288864E-4
1.562000E-7	-1.148091E-4
1.563000E-7	-4.488656E-4
1.564000E-7	-4.146034E-4
1.565000E-7	-1.199484E-4
1.566000E-7	3.631486E-4
1.567000E-7	7.211886E-4
1.568000E-7	8.393932E-4
1.569000E-7	7.109099E-4
1.570000E-7	3.545830E-4
1.571000E-7	-8.226003E-5
1.572000E-7	-4.694229E-4
1.573000E-7	-5.482260E-4
1.574000E-7	-3.700625E-4
1.575000E-7	-9.253869E-5
1.576000E-7	1.644278E-4
1.577000E-7	3.528699E-4
1.578000E-7	5.293202E-4
1.579000E-7	5.892791E-4
1.580000E-7	6.115495E-4
1.581000E-7	7.348934E-4
1.582000E-7	8.222621E-4
1.583000E-7	8.479587E-4
1.584000E-7	8.959258E-4
1.585000E-7	9.593109E-4
1.586000E-7	9.250487E-4
1.587000E-7	8.342538E-4
1.588000E-7	6.989181E-4
1.589000E-7	5.378858E-4
1.590000E-7	4.882056E-4
1.591000E-7	5.258940E-4
1.592000E-7	6.663690E-4
1.593000E-7	1.077515E-3
1.594000E-7	1.570891E-3
1.595000E-7	2.023152E-3
1.596000E-7	2.177332E-3
1.597000E-7	1.980324E-3
1.598000E-7	1.531490E-3
1.599000E-7	9.815813E-4
1.600000E-7	6.612297E-4
1.601000E-7	6.783608E-4
1.602000E-7	1.014130E-3
1.603000E-7	1.372170E-3
1.604000E-7	1.474957E-3
1.605000E-7	1.207712E-3
1.606000E-7	6.954919E-4
1.607000E-7	2.432309E-4
1.608000E-7	1.096083E-4
1.609000E-7	3.905583E-4
1.610000E-7	8.479587E-4
1.611000E-7	1.259105E-3
1.612000E-7	1.320777E-3
1.613000E-7	1.034688E-3
1.614000E-7	6.355331E-4
1.615000E-7	3.323126E-4
1.616000E-7	2.260998E-4
1.617000E-7	2.980504E-4
1.618000E-7	5.087629E-4
1.619000E-7	5.344596E-4
1.620000E-7	3.717141E-4
1.621000E-7	7.191987E-5
1.622000E-7	-5.142405E-5
1.623000E-7	-3.943228E-5
1.624000E-7	1.729934E-4
1.625000E-7	3.580092E-4
1.626000E-7	5.721480E-4
1.627000E-7	5.378858E-4
1.628000E-7	2.860586E-4
1.629000E-7	5.650188E-5
1.630000E-7	-3.086673E-5
1.631000E-7	8.733786E-5
1.632000E-7	4.094025E-4
1.633000E-7	8.017047E-4
1.634000E-7	1.089507E-3
1.635000E-7	1.358465E-3
1.636000E-7	1.444121E-3
1.637000E-7	1.483523E-3
1.638000E-7	1.531490E-3
1.639000E-7	1.654834E-3
1.640000E-7	1.877538E-3
1.641000E-7	1.985464E-3
1.642000E-7	1.930644E-3
1.643000E-7	1.623998E-3
1.644000E-7	1.180302E-3
1.645000E-7	5.961315E-4
1.646000E-7	1.044690E-4
1.647000E-7	-1.422189E-4
1.648000E-7	-4.628472E-5
1.649000E-7	3.734272E-4
1.650000E-7	8.633767E-4
1.651000E-7	1.356752E-3
1.652000E-7	1.730210E-3
1.653000E-7	1.954628E-3
1.654000E-7	2.016300E-3
1.655000E-7	1.880964E-3
1.656000E-7	1.661686E-3
1.657000E-7	1.289941E-3
1.658000E-7	8.822209E-4
1.659000E-7	4.402385E-4
1.660000E-7	2.089687E-4
1.661000E-7	2.038293E-4
1.662000E-7	5.019105E-4
1.663000E-7	9.627371E-4
1.664000E-7	1.438982E-3
1.665000E-7	1.815866E-3
1.666000E-7	1.809013E-3
1.667000E-7	1.632563E-3
1.668000E-7	1.212851E-3
1.669000E-7	7.537377E-4
1.670000E-7	3.323126E-4
1.671000E-7	2.689275E-4
1.672000E-7	2.843455E-4
1.673000E-7	3.151815E-4
1.674000E-7	3.751403E-4
1.675000E-7	2.466571E-4
1.676000E-7	1.575754E-4
1.677000E-7	1.044690E-4
1.678000E-7	2.004031E-4
1.679000E-7	2.929111E-4
1.680000E-7	5.533038E-4
1.681000E-7	6.766477E-4
1.682000E-7	8.034178E-4
1.683000E-7	8.565243E-4
1.684000E-7	8.548111E-4
1.685000E-7	9.387535E-4
1.686000E-7	1.024409E-3
1.687000E-7	1.183728E-3
1.688000E-7	1.331056E-3
1.689000E-7	1.334482E-3
1.690000E-7	1.283089E-3
1.691000E-7	1.130622E-3
1.692000E-7	8.702291E-4
1.693000E-7	5.344596E-4
1.694000E-7	2.415178E-4
1.695000E-7	1.729934E-4
1.696000E-7	2.432309E-4
1.697000E-7	5.310334E-4
1.698000E-7	9.216224E-4
1.699000E-7	1.296794E-3
1.700000E-7	1.517785E-3
1.701000E-7	1.478383E-3
1.702000E-7	1.264244E-3
1.703000E-7	9.850075E-4
1.704000E-7	6.269675E-4
1.705000E-7	3.323126E-4
1.706000E-7	1.798458E-4
1.707000E-7	1.010427E-4
1.708000E-7	1.250263E-4
1.709000E-7	2.466571E-4
1.710000E-7	3.203208E-4
1.711000E-7	3.374519E-4
1.712000E-7	2.004031E-4
1.713000E-7	-5.313716E-5
1.714000E-7	-3.820543E-4
1.715000E-7	-5.961930E-4
1.716000E-7	-6.887010E-4
1.717000E-7	-4.197427E-4
1.718000E-7	-2.058807E-5
1.719000E-7	4.196812E-4
1.720000E-7	7.400328E-4
1.721000E-7	8.856471E-4
1.722000E-7	8.428194E-4
1.723000E-7	5.858529E-4
1.724000E-7	3.734272E-4
1.725000E-7	3.648617E-4
1.726000E-7	5.139023E-4
1.727000E-7	8.702291E-4
1.728000E-7	1.334482E-3
1.729000E-7	1.572604E-3
1.730000E-7	1.521211E-3
1.731000E-7	1.142614E-3
1.732000E-7	5.019105E-4
1.733000E-7	-3.086673E-5
1.734000E-7	-2.792677E-4
1.735000E-7	-2.124564E-4
1.736000E-7	9.419030E-5
1.737000E-7	5.550169E-4
1.738000E-7	8.565243E-4
1.739000E-7	9.507453E-4
1.740000E-7	7.554508E-4
1.741000E-7	2.672144E-4
1.742000E-7	-1.918991E-4
1.743000E-7	-4.403000E-4
1.744000E-7	-3.409396E-4
1.745000E-7	2.223968E-5
1.746000E-7	6.064102E-4
1.747000E-7	1.211138E-3
1.748000E-7	1.651407E-3
1.749000E-7	1.752481E-3
1.750000E-7	1.492088E-3
1.751000E-7	1.074089E-3
1.752000E-7	6.749346E-4
1.753000E-7	2.860586E-4
1.754000E-7	-2.915362E-5
1.755000E-7	-1.730549E-4
1.756000E-7	-2.158826E-4
1.757000E-7	-1.387927E-4
1.758000E-7	-4.114539E-5
1.759000E-7	1.233132E-4
1.760000E-7	4.522303E-4
1.761000E-7	9.678764E-4
1.762000E-7	1.418424E-3
1.763000E-7	1.704514E-3
1.764000E-7	1.606866E-3
1.765000E-7	1.272810E-3
1.766000E-7	6.081233E-4
1.767000E-7	-2.230118E-5
1.768000E-7	-3.272348E-4
1.769000E-7	-1.918991E-4
1.770000E-7	4.950580E-4
1.771000E-7	1.219704E-3
1.772000E-7	1.767899E-3
1.773000E-7	1.832997E-3
1.774000E-7	1.428703E-3
1.775000E-7	8.736554E-4
1.776000E-7	4.676483E-4
1.777000E-7	2.123949E-4
1.778000E-7	1.455836E-4
1.779000E-7	7.363298E-5
1.780000E-7	-3.257984E-5
1.781000E-7	-2.415793E-4
1.782000E-7	-3.871936E-4
1.783000E-7	-1.302271E-4
1.784000E-7	4.094025E-4
1.785000E-7	1.241974E-3
1.786000E-7	2.076259E-3
1.787000E-7	2.374340E-3
1.788000E-7	2.209881E-3
1.789000E-7	1.577744E-3
1.790000E-7	9.284749E-4
1.791000E-7	3.854190E-4
1.792000E-7	2.535095E-4
1.793000E-7	5.173285E-4
1.794000E-7	9.781551E-4
1.795000E-7	1.295080E-3
1.796000E-7	1.346474E-3
1.797000E-7	1.211138E-3
1.798000E-7	1.139187E-3
1.799000E-7	1.128909E-3
1.800000E-7	1.343047E-3
1.801000E-7	1.653120E-3
1.802000E-7	1.913513E-3
1.803000E-7	1.913513E-3
1.804000E-7	1.639416E-3
1.805000E-7	1.168310E-3
1.806000E-7	7.588770E-4
1.807000E-7	3.785666E-4
1.808000E-7	2.295260E-4
1.809000E-7	1.558623E-4
1.810000E-7	2.363784E-4
1.811000E-7	2.603620E-4
1.812000E-7	4.042632E-4
1.813000E-7	3.956977E-4
1.814000E-7	3.323126E-4
1.815000E-7	2.021162E-4
1.816000E-7	1.061821E-4
1.817000E-7	1.455836E-4
1.818000E-7	3.031897E-4
1.819000E-7	5.618693E-4
1.820000E-7	8.787947E-4
1.821000E-7	1.151179E-3
1.822000E-7	1.355039E-3
1.823000E-7	1.411572E-3
1.824000E-7	1.344761E-3
1.825000E-7	1.267671E-3
1.826000E-7	1.300220E-3
1.827000E-7	1.435555E-3
1.828000E-7	1.574317E-3
1.829000E-7	1.637702E-3
1.830000E-7	1.678817E-3
1.831000E-7	1.476670E-3
1.832000E-7	1.231695E-3
1.833000E-7	7.725819E-4
1.834000E-7	3.580092E-4
1.835000E-7	-1.045305E-4
1.836000E-7	-2.809808E-4
1.837000E-7	-2.946857E-4
1.838000E-7	-4.799783E-5
1.839000E-7	3.922714E-4
1.840000E-7	9.575977E-4
1.841000E-7	1.348187E-3
1.842000E-7	1.440695E-3
1.843000E-7	1.051819E-3
1.844000E-7	4.967712E-4
1.845000E-7	2.566590E-5
1.846000E-7	-1.353664E-4
1.847000E-7	-3.943228E-5
1.848000E-7	3.648617E-4
1.849000E-7	9.164831E-4
1.850000E-7	1.296794E-3
1.851000E-7	1.295080E-3
1.852000E-7	1.079229E-3
1.853000E-7	6.766477E-4
1.854000E-7	3.700010E-4
1.855000E-7	1.729934E-4
1.856000E-7	9.761652E-5
1.857000E-7	3.168946E-4
1.858000E-7	6.132626E-4
1.859000E-7	7.485983E-4
1.860000E-7	6.578035E-4
1.861000E-7	2.380915E-4
1.862000E-7	-3.889067E-4
1.863000E-7	-1.069011E-3
1.864000E-7	-1.684018E-3
1.865000E-7	-2.011222E-3
1.866000E-7	-1.951263E-3
1.867000E-7	-1.468166E-3
1.868000E-7	-7.709303E-4
1.869000E-7	5.992810E-5
1.870000E-7	6.989181E-4
1.871000E-7	8.924996E-4
1.872000E-7	6.149757E-4
1.873000E-7	1.301656E-4
1.874000E-7	-2.724152E-4
1.875000E-7	-4.111772E-4
1.876000E-7	-2.038908E-4
1.877000E-7	3.186077E-4
1.878000E-7	9.010651E-4
1.879000E-7	1.253966E-3
1.880000E-7	1.281376E-3
1.881000E-7	1.082655E-3
1.882000E-7	7.742950E-4
1.883000E-7	5.790004E-4
1.884000E-7	4.676483E-4
1.885000E-7	5.807135E-4
1.886000E-7	6.697953E-4
1.887000E-7	7.982785E-4
1.888000E-7	7.794343E-4
1.889000E-7	6.081233E-4
1.890000E-7	2.517964E-4
1.891000E-7	-1.610631E-4
1.892000E-7	-5.242424E-4
1.893000E-7	-6.167504E-4
1.894000E-7	-4.985458E-4
1.895000E-7	-2.501448E-4
1.896000E-7	1.524360E-4
1.897000E-7	5.807135E-4
1.898000E-7	1.039827E-3
1.899000E-7	1.331056E-3
1.900000E-7	1.392728E-3
1.901000E-7	1.118630E-3
1.902000E-7	6.440986E-4
1.903000E-7	-1.199484E-4
1.904000E-7	-7.349549E-4
1.905000E-7	-8.497333E-4
1.906000E-7	-4.454394E-4
1.907000E-7	4.710745E-4
1.908000E-7	1.454400E-3
1.909000E-7	1.990603E-3
1.910000E-7	2.011160E-3
1.911000E-7	1.466391E-3
1.912000E-7	7.811474E-4
1.913000E-7	2.004031E-4
1.914000E-7	-5.313716E-5
1.915000E-7	-6.883189E-6
1.916000E-7	9.590341E-5
1.917000E-7	1.918376E-4
1.918000E-7	1.610016E-4
1.919000E-7	7.020676E-5
1.920000E-7	-3.074933E-8
1.921000E-7	6.506743E-5
1.922000E-7	3.374519E-4
1.923000E-7	6.954919E-4
1.924000E-7	1.089507E-3
1.925000E-7	1.375597E-3
1.926000E-7	1.409859E-3
1.927000E-7	1.151179E-3
1.928000E-7	8.770816E-4
1.929000E-7	6.783608E-4
1.930000E-7	6.886395E-4
1.931000E-7	8.119834E-4
1.932000E-7	1.089507E-3
1.933000E-7	1.233408E-3
1.934000E-7	1.108351E-3
1.935000E-7	7.366066E-4
1.936000E-7	2.620751E-4
1.937000E-7	1.682361E-6
1.938000E-7	6.849365E-5
1.939000E-7	5.738611E-4
1.940000E-7	1.180302E-3
1.941000E-7	1.754194E-3
1.942000E-7	2.100242E-3
1.943000E-7	2.144783E-3
1.944000E-7	1.915226E-3
1.945000E-7	1.524637E-3
1.946000E-7	1.118630E-3
1.947000E-7	8.085572E-4
1.948000E-7	6.303937E-4
1.949000E-7	4.967712E-4
1.950000E-7	5.104760E-4
1.951000E-7	5.498776E-4
1.952000E-7	7.109099E-4
1.953000E-7	9.284749E-4
1.954000E-7	1.063811E-3
1.955000E-7	1.026122E-3
1.956000E-7	1.000425E-3
1.957000E-7	8.616636E-4
1.958000E-7	7.006312E-4
1.959000E-7	5.858529E-4
1.960000E-7	4.179681E-4
1.961000E-7	3.151815E-4
1.962000E-7	2.432309E-4
1.963000E-7	3.271733E-4
1.964000E-7	4.008370E-4
1.965000E-7	5.515907E-4
1.966000E-7	7.383197E-4
1.967000E-7	8.787947E-4
1.968000E-7	9.901468E-4
1.969000E-7	8.856471E-4
1.970000E-7	6.303937E-4
1.971000E-7	2.243867E-4
1.972000E-7	-1.867597E-4
1.973000E-7	-5.413735E-4
1.974000E-7	-6.732830E-4
1.975000E-7	-7.058321E-4
1.976000E-7	-5.122506E-4
1.977000E-7	-2.415793E-4
1.978000E-7	4.622322E-5
1.979000E-7	3.956977E-4
1.980000E-7	6.800739E-4
1.981000E-7	8.668029E-4
1.982000E-7	8.188358E-4
1.983000E-7	5.995578E-4
1.984000E-7	3.271733E-4
1.985000E-7	7.705920E-5
1.986000E-7	3.937078E-5
1.987000E-7	2.689275E-4
1.988000E-7	7.400328E-4
1.989000E-7	1.135761E-3
1.990000E-7	1.159745E-3
1.991000E-7	9.181962E-4
1.992000E-7	5.001974E-4
1.993000E-7	2.038293E-4
1.994000E-7	2.809193E-4
1.995000E-7	6.920657E-4
1.996000E-7	1.217990E-3
1.997000E-7	1.685669E-3
1.998000E-7	1.964906E-3
1.999000E-7	1.815866E-3
2.000000E-7	1.495514E-3
2.001000E-7	8.873602E-4
