Study Name	Tungsten_Calibration
Sample Name	2024-10-03
Run Name	baseline_2000
Operator	Elena
Date	10/3/2024
Time	10:19
Sign	FIX
Grating Spacing	03.40um
Channel	3
Number Traces	2000
Files in Batch	6
Batch Number	2
dt	100.000001E-12
time stamp (ms)	10:19:35 AM
	
Time	Amplitude
0.000000E+0	8.291145E-4
1.000000E-10	1.063811E-3
2.000000E-10	1.344761E-3
3.000000E-10	1.497227E-3
4.000000E-10	1.492088E-3
5.000000E-10	1.276236E-3
6.000000E-10	8.565243E-4
7.000000E-10	4.470910E-4
8.000000E-10	6.164121E-5
9.000000E-10	-1.422189E-4
1.000000E-9	-1.713418E-4
1.100000E-9	-3.074933E-8
1.200000E-9	2.312391E-4
1.300000E-9	4.368123E-4
1.400000E-9	5.378858E-4
1.500000E-9	5.721480E-4
1.600000E-9	6.697953E-4
1.700000E-9	7.640163E-4
1.800000E-9	8.034178E-4
1.900000E-9	7.160492E-4
2.000000E-9	6.184020E-4
2.100000E-9	4.008370E-4
2.200000E-9	-5.170079E-6
2.300000E-9	-2.415793E-4
2.400000E-9	-3.169561E-4
2.500000E-9	-1.953253E-4
2.600000E-9	6.849365E-5
2.700000E-9	4.162550E-4
2.800000E-9	9.181962E-4
2.900000E-9	1.380736E-3
3.000000E-9	1.704514E-3
3.100000E-9	1.719932E-3
3.200000E-9	1.524637E-3
3.300000E-9	1.111778E-3
3.400000E-9	7.485983E-4
3.500000E-9	5.293202E-4
3.600000E-9	5.413120E-4
3.700000E-9	8.102703E-4
3.800000E-9	1.135761E-3
3.900000E-9	1.406433E-3
4.000000E-9	1.377310E-3
4.100000E-9	1.158032E-3
4.200000E-9	9.216224E-4
4.300000E-9	6.680822E-4
4.400000E-9	5.584431E-4
4.500000E-9	5.276071E-4
4.600000E-9	5.635824E-4
4.700000E-9	5.944184E-4
4.800000E-9	5.241809E-4
4.900000E-9	3.443044E-4
5.000000E-9	2.243867E-4
5.100000E-9	2.535095E-4
5.200000E-9	3.528699E-4
5.300000E-9	5.361727E-4
5.400000E-9	8.171227E-4
5.500000E-9	9.713026E-4
5.600000E-9	1.111778E-3
5.700000E-9	1.123769E-3
5.800000E-9	1.046679E-3
5.900000E-9	8.462456E-4
6.000000E-9	6.629428E-4
6.100000E-9	5.378858E-4
6.200000E-9	4.402385E-4
6.300000E-9	4.179681E-4
6.400000E-9	4.162550E-4
6.500000E-9	2.706406E-4
6.600000E-9	-2.230118E-5
6.700000E-9	-3.272348E-4
6.800000E-9	-4.522918E-4
6.900000E-9	-3.597839E-4
7.000000E-9	-9.596491E-5
7.100000E-9	3.083291E-4
7.200000E-9	5.755742E-4
7.300000E-9	6.560904E-4
7.400000E-9	6.046971E-4
7.500000E-9	5.413120E-4
7.600000E-9	5.824267E-4
7.700000E-9	7.879999E-4
7.800000E-9	9.713026E-4
7.900000E-9	1.065524E-3
8.000000E-9	9.832944E-4
8.100000E-9	6.526642E-4
8.200000E-9	3.991239E-4
8.300000E-9	3.597224E-4
8.400000E-9	6.475248E-4
8.500000E-9	1.053532E-3
8.600000E-9	1.461252E-3
8.700000E-9	1.630850E-3
8.800000E-9	1.524637E-3
8.900000E-9	1.272810E-3
9.000000E-9	8.702291E-4
9.100000E-9	7.434590E-4
9.200000E-9	6.989181E-4
9.300000E-9	9.764420E-4
9.400000E-9	1.168310E-3
9.500000E-9	1.274523E-3
9.600000E-9	1.281376E-3
9.700000E-9	1.132335E-3
9.800000E-9	8.907865E-4
9.900000E-9	7.263279E-4
1.000000E-8	6.920657E-4
1.010000E-8	8.222621E-4
1.020000E-8	9.507453E-4
1.030000E-8	9.610240E-4
1.040000E-8	8.907865E-4
1.050000E-8	6.886395E-4
1.060000E-8	5.310334E-4
1.070000E-8	4.745007E-4
1.080000E-8	5.293202E-4
1.090000E-8	7.554508E-4
1.100000E-8	1.026122E-3
1.110000E-8	1.216277E-3
1.120000E-8	1.238548E-3
1.130000E-8	1.139187E-3
1.140000E-8	8.496718E-4
1.150000E-8	6.800739E-4
1.160000E-8	6.732215E-4
1.170000E-8	9.096307E-4
1.180000E-8	1.229982E-3
1.190000E-8	1.630850E-3
1.200000E-8	1.853554E-3
1.210000E-8	1.798735E-3
1.220000E-8	1.524637E-3
1.230000E-8	1.039827E-3
1.240000E-8	5.601562E-4
1.250000E-8	2.021162E-4
1.260000E-8	1.678540E-4
1.270000E-8	3.151815E-4
1.280000E-8	4.984843E-4
1.290000E-8	5.464513E-4
1.300000E-8	4.590827E-4
1.310000E-8	1.935507E-4
1.320000E-8	-1.045305E-4
1.330000E-8	-2.056040E-4
1.340000E-8	-2.230118E-5
1.350000E-8	4.813532E-4
1.360000E-8	9.901468E-4
1.370000E-8	1.384162E-3
1.380000E-8	1.524637E-3
1.390000E-8	1.426990E-3
1.400000E-8	1.137474E-3
1.410000E-8	9.644502E-4
1.420000E-8	9.456060E-4
1.430000E-8	1.050106E-3
1.440000E-8	1.091220E-3
1.450000E-8	9.627371E-4
1.460000E-8	8.239752E-4
1.470000E-8	9.181962E-4
1.480000E-8	1.214564E-3
1.490000E-8	1.656547E-3
1.500000E-8	1.970046E-3
1.510000E-8	1.995742E-3
1.520000E-8	1.685669E-3
1.530000E-8	1.029548E-3
1.540000E-8	4.299599E-4
1.550000E-8	2.637882E-4
1.560000E-8	4.042632E-4
1.570000E-8	8.411063E-4
1.580000E-8	1.271097E-3
1.590000E-8	1.372170E-3
1.600000E-8	1.176876E-3
1.610000E-8	7.074837E-4
1.620000E-8	3.340257E-4
1.630000E-8	3.734272E-4
1.640000E-8	7.143361E-4
1.650000E-8	1.149466E-3
1.660000E-8	1.504080E-3
1.670000E-8	1.647981E-3
1.680000E-8	1.543481E-3
1.690000E-8	1.379023E-3
1.700000E-8	1.205999E-3
1.710000E-8	1.159745E-3
1.720000E-8	1.199146E-3
1.730000E-8	1.156319E-3
1.740000E-8	1.050106E-3
1.750000E-8	8.359669E-4
1.760000E-8	6.595166E-4
1.770000E-8	5.755742E-4
1.780000E-8	7.040575E-4
1.790000E-8	1.043253E-3
1.800000E-8	1.264244E-3
1.810000E-8	1.524637E-3
1.820000E-8	1.567465E-3
1.830000E-8	1.404719E-3
1.840000E-8	8.959258E-4
1.850000E-8	5.755742E-4
1.860000E-8	3.117553E-4
1.870000E-8	3.871321E-4
1.880000E-8	6.543773E-4
1.890000E-8	9.147700E-4
1.900000E-8	1.017557E-3
1.910000E-8	1.027835E-3
1.920000E-8	9.113438E-4
1.930000E-8	7.143361E-4
1.940000E-8	5.447382E-4
1.950000E-8	4.402385E-4
1.960000E-8	3.768535E-4
1.970000E-8	2.363784E-4
1.980000E-8	-1.473582E-4
1.990000E-8	-4.814147E-4
2.000000E-8	-6.938403E-4
2.010000E-8	-7.041190E-4
2.020000E-8	-5.722095E-4
2.030000E-8	-3.306610E-4
2.040000E-8	-6.341582E-5
2.050000E-8	2.774931E-4
2.060000E-8	5.241809E-4
2.070000E-8	5.892791E-4
2.080000E-8	5.104760E-4
2.090000E-8	3.511568E-4
2.100000E-8	1.935507E-4
2.110000E-8	1.267394E-4
2.120000E-8	1.901245E-4
2.130000E-8	3.854190E-4
2.140000E-8	5.892791E-4
2.150000E-8	8.873602E-4
2.160000E-8	9.661633E-4
2.170000E-8	9.781551E-4
2.180000E-8	1.007278E-3
2.190000E-8	1.082655E-3
2.200000E-8	1.180302E-3
2.210000E-8	1.223130E-3
2.220000E-8	1.159745E-3
2.230000E-8	1.142614E-3
2.240000E-8	1.175163E-3
2.250000E-8	1.327630E-3
2.260000E-8	1.591448E-3
2.270000E-8	1.877538E-3
2.280000E-8	2.071119E-3
2.290000E-8	2.113947E-3
2.300000E-8	1.966620E-3
2.310000E-8	1.687383E-3
2.320000E-8	1.341334E-3
2.330000E-8	1.163171E-3
2.340000E-8	1.067237E-3
2.350000E-8	1.050106E-3
2.360000E-8	1.171736E-3
2.370000E-8	1.336195E-3
2.380000E-8	1.257392E-3
2.390000E-8	1.036401E-3
2.400000E-8	4.967712E-4
2.410000E-8	-1.336533E-4
2.420000E-8	-6.167504E-4
2.430000E-8	-7.418074E-4
2.440000E-8	-5.191031E-4
2.450000E-8	-6.883189E-6
2.460000E-8	4.676483E-4
2.470000E-8	8.308276E-4
2.480000E-8	9.713026E-4
2.490000E-8	7.828605E-4
2.500000E-8	5.704349E-4
2.510000E-8	5.652956E-4
2.520000E-8	8.188358E-4
2.530000E-8	1.180302E-3
2.540000E-8	1.485236E-3
2.550000E-8	1.579457E-3
2.560000E-8	1.562326E-3
2.570000E-8	1.300220E-3
2.580000E-8	9.661633E-4
2.590000E-8	5.961315E-4
2.600000E-8	3.819928E-4
2.610000E-8	2.929111E-4
2.620000E-8	4.248205E-4
2.630000E-8	7.040575E-4
2.640000E-8	1.038114E-3
2.650000E-8	1.301933E-3
2.660000E-8	1.421851E-3
2.670000E-8	1.343047E-3
2.680000E-8	1.043253E-3
2.690000E-8	7.999916E-4
2.700000E-8	5.704349E-4
2.710000E-8	7.263279E-4
2.720000E-8	1.051819E-3
2.730000E-8	1.372170E-3
2.740000E-8	1.420137E-3
2.750000E-8	1.202572E-3
2.760000E-8	7.229017E-4
2.770000E-8	1.198870E-4
2.780000E-8	-3.015381E-4
2.790000E-8	-4.779884E-4
2.800000E-8	-3.923329E-4
2.810000E-8	-1.319402E-4
2.820000E-8	8.391164E-5
2.830000E-8	2.911980E-4
2.840000E-8	4.470910E-4
2.850000E-8	3.991239E-4
2.860000E-8	2.209604E-4
2.870000E-8	-2.058807E-5
2.880000E-8	-2.415793E-4
2.890000E-8	-5.002589E-4
2.900000E-8	-6.801354E-4
2.910000E-8	-7.983400E-4
2.920000E-8	-7.777827E-4
2.930000E-8	-6.647174E-4
2.940000E-8	-5.208162E-4
2.950000E-8	-3.409396E-4
2.960000E-8	-5.998960E-5
2.970000E-8	2.278129E-4
2.980000E-8	5.515907E-4
2.990000E-8	9.387535E-4
3.000000E-8	1.190581E-3
3.010000E-8	1.507506E-3
3.020000E-8	1.737063E-3
3.030000E-8	1.745628E-3
3.040000E-8	1.409859E-3
3.050000E-8	9.181962E-4
3.060000E-8	4.967712E-4
3.070000E-8	2.843455E-4
3.080000E-8	2.980504E-4
3.090000E-8	5.567300E-4
3.100000E-8	9.473191E-4
3.110000E-8	1.221417E-3
3.120000E-8	1.187154E-3
3.130000E-8	1.024409E-3
3.140000E-8	8.565243E-4
3.150000E-8	6.612297E-4
3.160000E-8	6.372462E-4
3.170000E-8	6.835001E-4
3.180000E-8	6.835001E-4
3.190000E-8	6.972050E-4
3.200000E-8	7.794343E-4
3.210000E-8	8.274014E-4
3.220000E-8	8.479587E-4
3.230000E-8	8.462456E-4
3.240000E-8	7.040575E-4
3.250000E-8	3.785666E-4
3.260000E-8	-1.490713E-4
3.270000E-8	-5.619308E-4
3.280000E-8	-7.760696E-4
3.290000E-8	-6.064717E-4
3.300000E-8	-2.450055E-4
3.310000E-8	3.631486E-4
3.320000E-8	9.147700E-4
3.330000E-8	1.241974E-3
3.340000E-8	1.171736E-3
3.350000E-8	8.839340E-4
3.360000E-8	4.368123E-4
3.370000E-8	5.992810E-5
3.380000E-8	-1.216616E-4
3.390000E-8	2.566590E-5
3.400000E-8	3.014766E-4
3.410000E-8	5.927053E-4
3.420000E-8	8.102703E-4
3.430000E-8	8.017047E-4
3.440000E-8	7.520245E-4
3.450000E-8	6.749346E-4
3.460000E-8	5.207547E-4
3.470000E-8	4.710745E-4
3.480000E-8	4.539434E-4
3.490000E-8	5.327465E-4
3.500000E-8	5.652956E-4
3.510000E-8	5.481645E-4
3.520000E-8	3.956977E-4
3.530000E-8	1.747065E-4
3.540000E-8	-7.198137E-5
3.550000E-8	-1.901860E-4
3.560000E-8	-2.193088E-4
3.570000E-8	-3.771917E-5
3.580000E-8	1.592885E-4
3.590000E-8	3.562961E-4
3.600000E-8	6.012709E-4
3.610000E-8	7.725819E-4
3.620000E-8	9.593109E-4
3.630000E-8	1.164884E-3
3.640000E-8	1.279662E-3
3.650000E-8	1.149466E-3
3.660000E-8	7.109099E-4
3.670000E-8	1.472967E-4
3.680000E-8	-4.368738E-4
3.690000E-8	-7.914876E-4
3.700000E-8	-8.617251E-4
3.710000E-8	-4.762753E-4
3.720000E-8	4.793633E-5
3.730000E-8	4.111157E-4
3.740000E-8	4.556565E-4
3.750000E-8	2.329522E-4
3.760000E-8	-3.456969E-6
3.770000E-8	3.251834E-5
3.780000E-8	2.500833E-4
3.790000E-8	6.937788E-4
3.800000E-8	1.241974E-3
3.810000E-8	1.612006E-3
3.820000E-8	1.697661E-3
3.830000E-8	1.428703E-3
3.840000E-8	1.115204E-3
3.850000E-8	7.879999E-4
3.860000E-8	5.738611E-4
3.870000E-8	4.710745E-4
3.880000E-8	4.316730E-4
3.890000E-8	4.265336E-4
3.900000E-8	4.162550E-4
3.910000E-8	3.425913E-4
3.920000E-8	1.969769E-4
3.930000E-8	4.279700E-5
3.940000E-8	-1.456451E-4
3.950000E-8	-2.501448E-4
3.960000E-8	-3.272348E-4
3.970000E-8	-2.844070E-4
3.980000E-8	-2.193088E-4
3.990000E-8	-1.490713E-4
4.000000E-8	-1.011042E-4
4.010000E-8	6.164121E-5
4.020000E-8	3.271733E-4
4.030000E-8	5.944184E-4
4.040000E-8	8.873602E-4
4.050000E-8	1.122056E-3
4.060000E-8	1.146040E-3
4.070000E-8	9.507453E-4
4.080000E-8	5.961315E-4
4.090000E-8	1.781327E-4
4.100000E-8	-7.369448E-5
4.110000E-8	-2.210219E-4
4.120000E-8	-2.090302E-4
4.130000E-8	-3.429295E-5
4.140000E-8	8.733786E-5
4.150000E-8	1.370181E-4
4.160000E-8	1.575754E-4
4.170000E-8	1.849851E-4
4.180000E-8	1.661409E-4
4.190000E-8	8.733786E-5
4.200000E-8	-6.341582E-5
4.210000E-8	-1.439320E-4
4.220000E-8	-1.439320E-4
4.230000E-8	-1.373563E-5
4.240000E-8	1.764196E-4
4.250000E-8	4.213943E-4
4.260000E-8	4.231074E-4
4.270000E-8	1.747065E-4
4.280000E-8	-1.148091E-4
4.290000E-8	-2.724152E-4
4.300000E-8	-2.621366E-4
4.310000E-8	-4.114539E-5
4.320000E-8	2.809193E-4
4.330000E-8	5.550169E-4
4.340000E-8	6.338200E-4
4.350000E-8	6.954919E-4
4.360000E-8	8.154096E-4
4.370000E-8	1.017557E-3
4.380000E-8	1.199146E-3
4.390000E-8	1.190581E-3
4.400000E-8	9.336142E-4
4.410000E-8	4.796401E-4
4.420000E-8	1.233132E-4
4.430000E-8	7.877231E-5
4.440000E-8	2.997635E-4
4.450000E-8	6.235413E-4
4.460000E-8	8.650898E-4
4.470000E-8	8.839340E-4
4.480000E-8	7.897130E-4
4.490000E-8	7.468852E-4
4.500000E-8	8.034178E-4
4.510000E-8	1.044966E-3
4.520000E-8	1.313925E-3
4.530000E-8	1.461252E-3
4.540000E-8	1.514358E-3
4.550000E-8	1.497227E-3
4.560000E-8	1.538342E-3
4.570000E-8	1.598301E-3
4.580000E-8	1.567465E-3
4.590000E-8	1.377310E-3
4.600000E-8	1.044966E-3
4.610000E-8	7.109099E-4
4.620000E-8	4.505172E-4
4.630000E-8	4.248205E-4
4.640000E-8	5.019105E-4
4.650000E-8	6.423855E-4
4.660000E-8	5.875660E-4
4.670000E-8	4.059763E-4
4.680000E-8	1.078952E-4
4.690000E-8	-2.569973E-4
4.700000E-8	-4.505787E-4
4.710000E-8	-3.837674E-4
4.720000E-8	-3.943228E-5
4.730000E-8	5.001974E-4
4.740000E-8	1.029548E-3
4.750000E-8	1.408146E-3
4.760000E-8	1.533203E-3
4.770000E-8	1.240261E-3
4.780000E-8	6.303937E-4
4.790000E-8	-9.082558E-5
4.800000E-8	-7.537992E-4
4.810000E-8	-1.120405E-3
4.820000E-8	-1.062159E-3
4.830000E-8	-6.321683E-4
4.840000E-8	-8.054692E-5
4.850000E-8	4.316730E-4
4.860000E-8	6.475248E-4
4.870000E-8	5.447382E-4
4.880000E-8	3.323126E-4
4.890000E-8	2.346653E-4
4.900000E-8	3.100422E-4
4.910000E-8	5.601562E-4
4.920000E-8	7.931392E-4
4.930000E-8	8.907865E-4
4.940000E-8	7.605901E-4
4.950000E-8	4.659352E-4
4.960000E-8	2.535095E-4
4.970000E-8	1.884114E-4
4.980000E-8	3.922714E-4
4.990000E-8	6.595166E-4
5.000000E-8	8.513849E-4
5.010000E-8	8.342538E-4
5.020000E-8	5.807135E-4
5.030000E-8	2.278129E-4
5.040000E-8	4.451011E-5
5.050000E-8	1.284525E-4
5.060000E-8	4.094025E-4
5.070000E-8	5.772873E-4
5.080000E-8	6.012709E-4
5.090000E-8	4.402385E-4
5.100000E-8	1.421574E-4
5.110000E-8	-8.226003E-5
5.120000E-8	-5.656338E-5
5.130000E-8	2.089687E-4
5.140000E-8	6.458117E-4
5.150000E-8	9.438929E-4
5.160000E-8	9.935731E-4
5.170000E-8	7.554508E-4
5.180000E-8	4.470910E-4
5.190000E-8	3.100422E-4
5.200000E-8	5.670087E-4
5.210000E-8	1.202572E-3
5.220000E-8	1.769612E-3
5.230000E-8	2.173906E-3
5.240000E-8	2.083111E-3
5.250000E-8	1.553760E-3
5.260000E-8	9.062044E-4
5.270000E-8	1.815589E-4
5.280000E-8	-2.501448E-4
5.290000E-8	-2.621366E-4
5.300000E-8	-8.596299E-6
5.310000E-8	2.483702E-4
5.320000E-8	4.333861E-4
5.330000E-8	4.453779E-4
5.340000E-8	3.871321E-4
5.350000E-8	3.443044E-4
5.360000E-8	5.139023E-4
5.370000E-8	7.160492E-4
5.380000E-8	1.014130E-3
5.390000E-8	1.209425E-3
5.400000E-8	1.241974E-3
5.410000E-8	1.005565E-3
5.420000E-8	6.372462E-4
5.430000E-8	1.233132E-4
5.440000E-8	-3.220954E-4
5.450000E-8	-5.876275E-4
5.460000E-8	-6.133241E-4
5.470000E-8	-4.694229E-4
5.480000E-8	-2.655628E-4
5.490000E-8	1.490098E-4
5.500000E-8	5.567300E-4
5.510000E-8	9.421798E-4
5.520000E-8	1.240261E-3
5.530000E-8	1.461252E-3
5.540000E-8	1.553760E-3
5.550000E-8	1.447547E-3
5.560000E-8	1.332769E-3
5.570000E-8	9.832944E-4
5.580000E-8	6.989181E-4
5.590000E-8	4.625090E-4
5.600000E-8	2.774931E-4
5.610000E-8	1.764196E-4
5.620000E-8	1.078952E-4
5.630000E-8	2.021162E-4
5.640000E-8	3.888452E-4
5.650000E-8	5.207547E-4
5.660000E-8	6.766477E-4
5.670000E-8	6.475248E-4
5.680000E-8	3.494437E-4
5.690000E-8	4.451011E-5
5.700000E-8	-1.833335E-4
5.710000E-8	-2.021777E-4
5.720000E-8	5.478877E-5
5.730000E-8	4.453779E-4
5.740000E-8	8.513849E-4
5.750000E-8	1.015843E-3
5.760000E-8	8.513849E-4
5.770000E-8	4.556565E-4
5.780000E-8	1.747065E-4
5.790000E-8	6.335432E-5
5.800000E-8	4.179681E-4
5.810000E-8	9.832944E-4
5.820000E-8	1.504080E-3
5.830000E-8	1.690809E-3
5.840000E-8	1.473244E-3
5.850000E-8	8.325407E-4
5.860000E-8	8.733786E-5
5.870000E-8	-4.128903E-4
5.880000E-8	-6.475863E-4
5.890000E-8	-4.334476E-4
5.900000E-8	-9.767802E-5
5.910000E-8	4.076894E-4
5.920000E-8	8.308276E-4
5.930000E-8	1.182015E-3
5.940000E-8	1.478383E-3
5.950000E-8	1.601727E-3
5.960000E-8	1.598301E-3
5.970000E-8	1.394441E-3
5.980000E-8	1.039827E-3
5.990000E-8	6.132626E-4
6.000000E-8	4.145419E-4
6.010000E-8	4.762138E-4
6.020000E-8	7.040575E-4
6.030000E-8	1.008991E-3
6.040000E-8	1.128909E-3
6.050000E-8	1.137474E-3
6.060000E-8	1.067237E-3
6.070000E-8	9.216224E-4
6.080000E-8	7.434590E-4
6.090000E-8	5.224678E-4
6.100000E-8	3.785666E-4
6.110000E-8	2.860586E-4
6.120000E-8	2.243867E-4
6.130000E-8	1.678540E-4
6.140000E-8	2.963373E-4
6.150000E-8	3.323126E-4
6.160000E-8	2.415178E-4
6.170000E-8	7.705920E-5
6.180000E-8	1.538724E-5
6.190000E-8	-8.054692E-5
6.200000E-8	-1.507844E-4
6.210000E-8	-5.142405E-5
6.220000E-8	2.535095E-4
6.230000E-8	6.680822E-4
6.240000E-8	1.046679E-3
6.250000E-8	1.283089E-3
6.260000E-8	1.293367E-3
6.270000E-8	1.051819E-3
6.280000E-8	6.817870E-4
6.290000E-8	3.734272E-4
6.300000E-8	2.432309E-4
6.310000E-8	3.494437E-4
6.320000E-8	4.847794E-4
6.330000E-8	7.074837E-4
6.340000E-8	8.976389E-4
6.350000E-8	1.070663E-3
6.360000E-8	1.245400E-3
6.370000E-8	1.356752E-3
6.380000E-8	1.389301E-3
6.390000E-8	1.387588E-3
6.400000E-8	1.317351E-3
6.410000E-8	1.310498E-3
6.420000E-8	1.269384E-3
6.430000E-8	1.382449E-3
6.440000E-8	1.418424E-3
6.450000E-8	1.507506E-3
6.460000E-8	1.370457E-3
6.470000E-8	1.329343E-3
6.480000E-8	1.113491E-3
6.490000E-8	9.867206E-4
6.500000E-8	8.805078E-4
6.510000E-8	8.736554E-4
6.520000E-8	8.530980E-4
6.530000E-8	9.627371E-4
6.540000E-8	1.079229E-3
6.550000E-8	1.235122E-3
6.560000E-8	1.324203E-3
6.570000E-8	1.377310E-3
6.580000E-8	1.341334E-3
6.590000E-8	1.284802E-3
6.600000E-8	1.170023E-3
6.610000E-8	1.072376E-3
6.620000E-8	7.897130E-4
6.630000E-8	4.231074E-4
6.640000E-8	8.391164E-5
6.650000E-8	-1.216616E-4
6.660000E-8	-7.026826E-5
6.670000E-8	1.952638E-4
6.680000E-8	6.920657E-4
6.690000E-8	1.084368E-3
6.700000E-8	1.188868E-3
6.710000E-8	8.376800E-4
6.720000E-8	3.186077E-4
6.730000E-8	-2.467186E-4
6.740000E-8	-5.465128E-4
6.750000E-8	-5.088244E-4
6.760000E-8	-1.936122E-4
6.770000E-8	2.809193E-4
6.780000E-8	4.676483E-4
6.790000E-8	5.019105E-4
6.800000E-8	3.819928E-4
6.810000E-8	2.946242E-4
6.820000E-8	2.792062E-4
6.830000E-8	4.625090E-4
6.840000E-8	7.229017E-4
6.850000E-8	9.267618E-4
6.860000E-8	1.036401E-3
6.870000E-8	1.089507E-3
6.880000E-8	1.147753E-3
6.890000E-8	1.233408E-3
6.900000E-8	1.474957E-3
6.910000E-8	1.661686E-3
6.920000E-8	1.767899E-3
6.930000E-8	1.682243E-3
6.940000E-8	1.353326E-3
6.950000E-8	8.856471E-4
6.960000E-8	4.333861E-4
6.970000E-8	1.884114E-4
6.980000E-8	3.494437E-4
6.990000E-8	7.554508E-4
7.000000E-8	1.281376E-3
7.010000E-8	1.810727E-3
7.020000E-8	2.112234E-3
7.030000E-8	2.209881E-3
7.040000E-8	1.952915E-3
7.050000E-8	1.507506E-3
7.060000E-8	1.060384E-3
7.070000E-8	7.177623E-4
7.080000E-8	4.299599E-4
7.090000E-8	2.483702E-4
7.100000E-8	1.541492E-4
7.110000E-8	5.821499E-5
7.120000E-8	-3.086673E-5
7.130000E-8	1.024791E-5
7.140000E-8	8.391164E-5
7.150000E-8	2.980504E-4
7.160000E-8	4.779269E-4
7.170000E-8	5.909922E-4
7.180000E-8	6.697953E-4
7.190000E-8	6.149757E-4
7.200000E-8	4.882056E-4
7.210000E-8	3.494437E-4
7.220000E-8	3.254602E-4
7.230000E-8	3.734272E-4
7.240000E-8	4.539434E-4
7.250000E-8	6.303937E-4
7.260000E-8	7.674425E-4
7.270000E-8	7.794343E-4
7.280000E-8	7.160492E-4
7.290000E-8	6.406724E-4
7.300000E-8	5.036236E-4
7.310000E-8	3.751403E-4
7.320000E-8	4.282468E-4
7.330000E-8	5.241809E-4
7.340000E-8	8.530980E-4
7.350000E-8	1.187154E-3
7.360000E-8	1.456113E-3
7.370000E-8	1.555473E-3
7.380000E-8	1.428703E-3
7.390000E-8	1.221417E-3
7.400000E-8	8.924996E-4
7.410000E-8	3.562961E-4
7.420000E-8	-9.596491E-5
7.430000E-8	-2.963988E-4
7.440000E-8	-2.347268E-4
7.450000E-8	1.335918E-4
7.460000E-8	7.331803E-4
7.470000E-8	1.267671E-3
7.480000E-8	1.505793E-3
7.490000E-8	1.313925E-3
7.500000E-8	7.623032E-4
7.510000E-8	1.284525E-4
7.520000E-8	-3.820543E-4
7.530000E-8	-3.923329E-4
7.540000E-8	2.395279E-5
7.550000E-8	6.663690E-4
7.560000E-8	1.247113E-3
7.570000E-8	1.495514E-3
7.580000E-8	1.414998E-3
7.590000E-8	1.104925E-3
7.600000E-8	8.136965E-4
7.610000E-8	6.680822E-4
7.620000E-8	7.280410E-4
7.630000E-8	9.044913E-4
7.640000E-8	9.987124E-4
7.650000E-8	9.319011E-4
7.660000E-8	7.674425E-4
7.670000E-8	6.355331E-4
7.680000E-8	6.543773E-4
7.690000E-8	8.496718E-4
7.700000E-8	1.048393E-3
7.710000E-8	1.146040E-3
7.720000E-8	9.901468E-4
7.730000E-8	5.995578E-4
7.740000E-8	1.318787E-4
7.750000E-8	-1.370796E-4
7.760000E-8	-6.684204E-5
7.770000E-8	3.905583E-4
7.780000E-8	1.060384E-3
7.790000E-8	1.800448E-3
7.800000E-8	2.381192E-3
7.810000E-8	2.576487E-3
7.820000E-8	2.400036E-3
7.830000E-8	1.863833E-3
7.840000E-8	1.271097E-3
7.850000E-8	8.239752E-4
7.860000E-8	5.515907E-4
7.870000E-8	5.207547E-4
7.880000E-8	6.715084E-4
7.890000E-8	8.205489E-4
7.900000E-8	8.188358E-4
7.910000E-8	7.845736E-4
7.920000E-8	5.961315E-4
7.930000E-8	3.203208E-4
7.940000E-8	1.682361E-6
7.950000E-8	-3.152430E-4
7.960000E-8	-4.265951E-4
7.970000E-8	-2.981119E-4
7.980000E-8	-2.313006E-4
7.990000E-8	-9.253869E-5
8.000000E-8	3.423145E-5
8.010000E-8	9.932963E-5
8.020000E-8	6.506743E-5
8.030000E-8	1.387312E-4
8.040000E-8	3.134684E-4
8.050000E-8	5.687218E-4
8.060000E-8	7.503114E-4
8.070000E-8	7.126230E-4
8.080000E-8	4.436647E-4
8.090000E-8	1.061821E-4
8.100000E-8	-1.473582E-4
8.110000E-8	-1.747680E-4
8.120000E-8	1.884114E-4
8.130000E-8	6.321068E-4
8.140000E-8	1.075802E-3
8.150000E-8	1.281376E-3
8.160000E-8	1.361892E-3
8.170000E-8	1.346474E-3
8.180000E-8	1.260818E-3
8.190000E-8	1.111778E-3
8.200000E-8	8.753685E-4
8.210000E-8	4.950580E-4
8.220000E-8	2.909212E-5
8.230000E-8	-2.501448E-4
8.240000E-8	-2.552841E-4
8.250000E-8	2.158211E-4
8.260000E-8	9.079176E-4
8.270000E-8	1.778177E-3
8.280000E-8	2.420594E-3
8.290000E-8	2.687839E-3
8.300000E-8	2.571347E-3
8.310000E-8	2.163627E-3
8.320000E-8	1.747341E-3
8.330000E-8	1.406433E-3
8.340000E-8	1.276236E-3
8.350000E-8	1.180302E-3
8.360000E-8	1.087794E-3
8.370000E-8	8.685160E-4
8.380000E-8	6.132626E-4
8.390000E-8	6.184020E-4
8.400000E-8	7.177623E-4
8.410000E-8	1.034688E-3
8.420000E-8	1.288228E-3
8.430000E-8	1.325916E-3
8.440000E-8	1.036401E-3
8.450000E-8	5.413120E-4
8.460000E-8	4.622322E-5
8.470000E-8	-3.426528E-4
8.480000E-8	-2.518579E-4
8.490000E-8	7.191987E-5
8.500000E-8	5.704349E-4
8.510000E-8	9.901468E-4
8.520000E-8	1.226556E-3
8.530000E-8	1.190581E-3
8.540000E-8	1.043253E-3
8.550000E-8	8.393932E-4
8.560000E-8	7.742950E-4
8.570000E-8	1.015843E-3
8.580000E-8	1.471531E-3
8.590000E-8	1.805587E-3
8.600000E-8	1.809013E-3
8.610000E-8	1.557186E-3
8.620000E-8	1.146040E-3
8.630000E-8	5.772873E-4
8.640000E-8	3.100422E-4
8.650000E-8	3.665748E-4
8.660000E-8	7.503114E-4
8.670000E-8	1.173450E-3
8.680000E-8	1.312212E-3
8.690000E-8	1.086081E-3
8.700000E-8	7.040575E-4
8.710000E-8	3.288864E-4
8.720000E-8	2.312391E-4
8.730000E-8	3.888452E-4
8.740000E-8	7.485983E-4
8.750000E-8	1.134048E-3
8.760000E-8	1.483523E-3
8.770000E-8	1.442408E-3
8.780000E-8	1.159745E-3
8.790000E-8	8.017047E-4
8.800000E-8	5.755742E-4
8.810000E-8	4.967712E-4
8.820000E-8	4.796401E-4
8.830000E-8	5.790004E-4
8.840000E-8	6.303937E-4
8.850000E-8	7.143361E-4
8.860000E-8	7.126230E-4
8.870000E-8	7.177623E-4
8.880000E-8	7.280410E-4
8.890000E-8	7.879999E-4
8.900000E-8	7.897130E-4
8.910000E-8	7.280410E-4
8.920000E-8	6.937788E-4
8.930000E-8	6.303937E-4
8.940000E-8	7.451721E-4
8.950000E-8	9.987124E-4
8.960000E-8	1.223130E-3
8.970000E-8	1.459539E-3
8.980000E-8	1.486949E-3
8.990000E-8	1.379023E-3
9.000000E-8	1.020983E-3
9.010000E-8	7.845736E-4
9.020000E-8	4.830663E-4
9.030000E-8	4.111157E-4
9.040000E-8	5.001974E-4
9.050000E-8	6.766477E-4
9.060000E-8	7.691556E-4
9.070000E-8	7.074837E-4
9.080000E-8	5.909922E-4
9.090000E-8	4.436647E-4
9.100000E-8	3.922714E-4
9.110000E-8	3.768535E-4
9.120000E-8	2.843455E-4
9.130000E-8	1.884114E-4
9.140000E-8	-1.439320E-4
9.150000E-8	-4.265951E-4
9.160000E-8	-6.458732E-4
9.170000E-8	-5.996193E-4
9.180000E-8	-4.505787E-4
9.190000E-8	-1.148091E-4
9.200000E-8	1.815589E-4
9.210000E-8	4.419516E-4
9.220000E-8	7.571639E-4
9.230000E-8	9.113438E-4
9.240000E-8	9.969993E-4
9.250000E-8	9.044913E-4
9.260000E-8	6.440986E-4
9.270000E-8	3.305995E-4
9.280000E-8	9.761652E-5
9.290000E-8	2.737901E-5
9.300000E-8	1.164607E-4
9.310000E-8	4.059763E-4
9.320000E-8	8.376800E-4
9.330000E-8	1.291654E-3
9.340000E-8	1.632563E-3
9.350000E-8	1.918652E-3
9.360000E-8	2.011160E-3
9.370000E-8	1.999169E-3
9.380000E-8	1.843276E-3
9.390000E-8	1.409859E-3
9.400000E-8	8.325407E-4
9.410000E-8	2.877717E-4
9.420000E-8	-1.713418E-4
9.430000E-8	-3.152430E-4
9.440000E-8	-1.901860E-4
9.450000E-8	2.123949E-4
9.460000E-8	7.297541E-4
9.470000E-8	1.202572E-3
9.480000E-8	1.459539E-3
9.490000E-8	1.495514E-3
9.500000E-8	1.312212E-3
9.510000E-8	9.421798E-4
9.520000E-8	4.299599E-4
9.530000E-8	-1.544874E-5
9.540000E-8	-4.625705E-4
9.550000E-8	-7.709303E-4
9.560000E-8	-9.508068E-4
9.570000E-8	-8.445940E-4
9.580000E-8	-6.681437E-4
9.590000E-8	-4.591442E-4
9.600000E-8	-1.576369E-4
9.610000E-8	1.113214E-4
9.620000E-8	4.607958E-4
9.630000E-8	6.903526E-4
9.640000E-8	7.914261E-4
9.650000E-8	6.886395E-4
9.660000E-8	5.224678E-4
9.670000E-8	3.477306E-4
9.680000E-8	3.323126E-4
9.690000E-8	4.727876E-4
9.700000E-8	7.366066E-4
9.710000E-8	1.118630E-3
9.720000E-8	1.420137E-3
9.730000E-8	1.606866E-3
9.740000E-8	1.586309E-3
9.750000E-8	1.253966E-3
9.760000E-8	7.091968E-4
9.770000E-8	1.815589E-4
9.780000E-8	-1.953253E-4
9.790000E-8	-1.079567E-4
9.800000E-8	2.637882E-4
9.810000E-8	9.593109E-4
9.820000E-8	1.510932E-3
9.830000E-8	1.661686E-3
9.840000E-8	1.372170E-3
9.850000E-8	8.599505E-4
9.860000E-8	5.327465E-4
9.870000E-8	5.224678E-4
9.880000E-8	7.828605E-4
9.890000E-8	1.158032E-3
9.900000E-8	1.438982E-3
9.910000E-8	1.382449E-3
9.920000E-8	1.087794E-3
9.930000E-8	6.098364E-4
9.940000E-8	9.590341E-5
9.950000E-8	-1.833335E-4
9.960000E-8	-2.450055E-4
9.970000E-8	-1.490713E-4
9.980000E-8	1.181738E-4
9.990000E-8	2.929111E-4
1.000000E-7	3.134684E-4
1.001000E-7	1.250263E-4
1.002000E-7	-1.028173E-4
1.003000E-7	-3.340872E-4
1.004000E-7	-4.008985E-4
1.005000E-7	-3.632101E-4
1.006000E-7	-1.524975E-4
1.007000E-7	8.733786E-5
1.008000E-7	4.042632E-4
1.009000E-7	6.132626E-4
1.010000E-7	7.400328E-4
1.011000E-7	7.811474E-4
1.012000E-7	8.890733E-4
1.013000E-7	8.393932E-4
1.014000E-7	6.578035E-4
1.015000E-7	2.826324E-4
1.016000E-7	-2.401429E-5
1.017000E-7	-2.915362E-5
1.018000E-7	4.279700E-5
1.019000E-7	2.123949E-4
1.020000E-7	2.398047E-4
1.021000E-7	2.706406E-4
1.022000E-7	1.078952E-4
1.023000E-7	2.909212E-5
1.024000E-7	-1.542107E-4
1.025000E-7	-9.253869E-5
1.026000E-7	9.761652E-5
1.027000E-7	3.802797E-4
1.028000E-7	6.064102E-4
1.029000E-7	6.475248E-4
1.030000E-7	4.419516E-4
1.031000E-7	1.044690E-4
1.032000E-7	-1.233747E-4
1.033000E-7	-1.850466E-4
1.034000E-7	1.233132E-4
1.035000E-7	6.526642E-4
1.036000E-7	1.224843E-3
1.037000E-7	1.670252E-3
1.038000E-7	1.779891E-3
1.039000E-7	1.639416E-3
1.040000E-7	1.262531E-3
1.041000E-7	9.387535E-4
1.042000E-7	7.297541E-4
1.043000E-7	7.623032E-4
1.044000E-7	9.199093E-4
1.045000E-7	1.077515E-3
1.046000E-7	9.884337E-4
1.047000E-7	4.830663E-4
1.048000E-7	-1.764811E-4
1.049000E-7	-8.428809E-4
1.050000E-7	-1.087856E-3
1.051000E-7	-1.019331E-3
1.052000E-7	-4.488656E-4
1.053000E-7	2.723537E-4
1.054000E-7	9.421798E-4
1.055000E-7	1.276236E-3
1.056000E-7	1.226556E-3
1.057000E-7	9.438929E-4
1.058000E-7	5.104760E-4
1.059000E-7	1.558623E-4
1.060000E-7	1.318787E-4
1.061000E-7	3.443044E-4
1.062000E-7	5.327465E-4
1.063000E-7	5.498776E-4
1.064000E-7	4.059763E-4
1.065000E-7	3.423145E-5
1.066000E-7	-3.409396E-4
1.067000E-7	-5.550784E-4
1.068000E-7	-5.088244E-4
1.069000E-7	-1.353664E-4
1.070000E-7	4.231074E-4
1.071000E-7	8.907865E-4
1.072000E-7	1.182015E-3
1.073000E-7	1.243687E-3
1.074000E-7	1.043253E-3
1.075000E-7	8.034178E-4
1.076000E-7	4.830663E-4
1.077000E-7	1.935507E-4
1.078000E-7	-8.054692E-5
1.079000E-7	-3.649232E-4
1.080000E-7	-6.578650E-4
1.081000E-7	-8.377415E-4
1.082000E-7	-9.096922E-4
1.083000E-7	-7.623647E-4
1.084000E-7	-4.797016E-4
1.085000E-7	-8.911247E-5
1.086000E-7	2.021162E-4
1.087000E-7	3.391650E-4
1.088000E-7	3.271733E-4
1.089000E-7	1.798458E-4
1.090000E-7	1.044690E-4
1.091000E-7	3.423145E-5
1.092000E-7	5.108581E-6
1.093000E-7	2.141080E-4
1.094000E-7	3.785666E-4
1.095000E-7	4.779269E-4
1.096000E-7	4.333861E-4
1.097000E-7	4.042632E-4
1.098000E-7	3.528699E-4
1.099000E-7	3.066159E-4
1.100000E-7	4.676483E-4
1.101000E-7	6.321068E-4
1.102000E-7	8.890733E-4
1.103000E-7	1.110065E-3
1.104000E-7	1.187154E-3
1.105000E-7	1.216277E-3
1.106000E-7	1.170023E-3
1.107000E-7	1.235122E-3
1.108000E-7	1.317351E-3
1.109000E-7	1.379023E-3
1.110000E-7	1.384162E-3
1.111000E-7	1.277949E-3
1.112000E-7	1.289941E-3
1.113000E-7	1.152892E-3
1.114000E-7	1.008991E-3
1.115000E-7	8.753685E-4
1.116000E-7	8.513849E-4
1.117000E-7	9.558846E-4
1.118000E-7	1.185441E-3
1.119000E-7	1.471531E-3
1.120000E-7	1.759333E-3
1.121000E-7	1.923792E-3
1.122000E-7	1.783317E-3
1.123000E-7	1.418424E-3
1.124000E-7	9.062044E-4
1.125000E-7	5.395989E-4
1.126000E-7	3.323126E-4
1.127000E-7	2.809193E-4
1.128000E-7	2.740669E-4
1.129000E-7	1.164607E-4
1.130000E-7	-3.074933E-8
1.131000E-7	-2.347268E-4
1.132000E-7	-4.711360E-4
1.133000E-7	-6.732830E-4
1.134000E-7	-6.938403E-4
1.135000E-7	-5.036851E-4
1.136000E-7	-1.627762E-4
1.137000E-7	3.254602E-4
1.138000E-7	7.400328E-4
1.139000E-7	1.128909E-3
1.140000E-7	1.392728E-3
1.141000E-7	1.557186E-3
1.142000E-7	1.567465E-3
1.143000E-7	1.569178E-3
1.144000E-7	1.644555E-3
1.145000E-7	1.913513E-3
1.146000E-7	2.071119E-3
1.147000E-7	2.137931E-3
1.148000E-7	2.004308E-3
1.149000E-7	1.656547E-3
1.150000E-7	1.284802E-3
1.151000E-7	1.044966E-3
1.152000E-7	1.017557E-3
1.153000E-7	1.118630E-3
1.154000E-7	1.385875E-3
1.155000E-7	1.622284E-3
1.156000E-7	1.706227E-3
1.157000E-7	1.615432E-3
1.158000E-7	1.286515E-3
1.159000E-7	9.181962E-4
1.160000E-7	4.642221E-4
1.161000E-7	1.044690E-4
1.162000E-7	-1.610631E-4
1.163000E-7	-1.610631E-4
1.164000E-7	2.223968E-5
1.165000E-7	5.481645E-4
1.166000E-7	1.020983E-3
1.167000E-7	1.397867E-3
1.168000E-7	1.329343E-3
1.169000E-7	9.319011E-4
1.170000E-7	3.014766E-4
1.171000E-7	-2.604235E-4
1.172000E-7	-4.916933E-4
1.173000E-7	-2.569973E-4
1.174000E-7	2.757800E-4
1.175000E-7	8.393932E-4
1.176000E-7	1.053532E-3
1.177000E-7	8.102703E-4
1.178000E-7	2.055425E-4
1.179000E-7	-3.906198E-4
1.180000E-7	-7.400943E-4
1.181000E-7	-5.996193E-4
1.182000E-7	-6.170271E-5
1.183000E-7	7.211886E-4
1.184000E-7	1.454400E-3
1.185000E-7	1.935784E-3
1.186000E-7	1.997456E-3
1.187000E-7	1.858694E-3
1.188000E-7	1.452687E-3
1.189000E-7	9.935731E-4
1.190000E-7	6.595166E-4
1.191000E-7	5.156154E-4
1.192000E-7	6.355331E-4
1.193000E-7	8.907865E-4
1.194000E-7	1.231695E-3
1.195000E-7	1.534916E-3
1.196000E-7	1.531490E-3
1.197000E-7	1.336195E-3
1.198000E-7	9.353273E-4
1.199000E-7	4.813532E-4
1.200000E-7	1.541492E-4
1.201000E-7	-2.401429E-5
1.202000E-7	-4.114539E-5
1.203000E-7	6.506743E-5
1.204000E-7	2.963373E-4
1.205000E-7	5.858529E-4
1.206000E-7	8.616636E-4
1.207000E-7	1.039827E-3
1.208000E-7	1.161458E-3
1.209000E-7	1.110065E-3
1.210000E-7	1.070663E-3
1.211000E-7	1.068950E-3
1.212000E-7	1.190581E-3
1.213000E-7	1.219704E-3
1.214000E-7	1.120343E-3
1.215000E-7	8.959258E-4
1.216000E-7	5.772873E-4
1.217000E-7	2.929111E-4
1.218000E-7	1.130345E-4
1.219000E-7	8.048542E-5
1.220000E-7	1.147476E-4
1.221000E-7	2.089687E-4
1.222000E-7	2.517964E-4
1.223000E-7	3.117553E-4
1.224000E-7	3.083291E-4
1.225000E-7	2.363784E-4
1.226000E-7	3.151815E-4
1.227000E-7	3.751403E-4
1.228000E-7	3.768535E-4
1.229000E-7	3.597224E-4
1.230000E-7	3.340257E-4
1.231000E-7	3.974108E-4
1.232000E-7	4.710745E-4
1.233000E-7	5.978446E-4
1.234000E-7	6.835001E-4
1.235000E-7	7.777212E-4
1.236000E-7	8.513849E-4
1.237000E-7	9.353273E-4
1.238000E-7	1.128909E-3
1.239000E-7	1.341334E-3
1.240000E-7	1.564039E-3
1.241000E-7	1.707940E-3
1.242000E-7	1.562326E-3
1.243000E-7	1.188868E-3
1.244000E-7	6.646559E-4
1.245000E-7	7.363298E-5
1.246000E-7	-3.597839E-4
1.247000E-7	-4.642836E-4
1.248000E-7	-2.107433E-4
1.249000E-7	3.939846E-4
1.250000E-7	9.319011E-4
1.251000E-7	1.274523E-3
1.252000E-7	1.231695E-3
1.253000E-7	8.890733E-4
1.254000E-7	3.271733E-4
1.255000E-7	-1.833335E-4
1.256000E-7	-3.632101E-4
1.257000E-7	-2.604235E-4
1.258000E-7	4.451011E-5
1.259000E-7	3.802797E-4
1.260000E-7	6.372462E-4
1.261000E-7	7.742950E-4
1.262000E-7	7.297541E-4
1.263000E-7	5.909922E-4
1.264000E-7	4.779269E-4
1.265000E-7	5.413120E-4
1.266000E-7	7.280410E-4
1.267000E-7	8.942127E-4
1.268000E-7	9.387535E-4
1.269000E-7	8.650898E-4
1.270000E-7	4.933449E-4
1.271000E-7	3.251834E-5
1.272000E-7	-4.865540E-4
1.273000E-7	-7.829220E-4
1.274000E-7	-7.383812E-4
1.275000E-7	-4.711360E-4
1.276000E-7	-5.998960E-5
1.277000E-7	3.545830E-4
1.278000E-7	6.835001E-4
1.279000E-7	9.490322E-4
1.280000E-7	1.132335E-3
1.281000E-7	1.312212E-3
1.282000E-7	1.481809E-3
1.283000E-7	1.510932E-3
1.284000E-7	1.355039E-3
1.285000E-7	1.135761E-3
1.286000E-7	9.199093E-4
1.287000E-7	7.348934E-4
1.288000E-7	6.235413E-4
1.289000E-7	6.201151E-4
1.290000E-7	6.749346E-4
1.291000E-7	8.119834E-4
1.292000E-7	1.055245E-3
1.293000E-7	1.219704E-3
1.294000E-7	1.241974E-3
1.295000E-7	1.154605E-3
1.296000E-7	8.462456E-4
1.297000E-7	6.406724E-4
1.298000E-7	5.104760E-4
1.299000E-7	5.995578E-4
1.300000E-7	9.747288E-4
1.301000E-7	1.615432E-3
1.302000E-7	2.237291E-3
1.303000E-7	2.542225E-3
1.304000E-7	2.578200E-3
1.305000E-7	2.269840E-3
1.306000E-7	1.776464E-3
1.307000E-7	1.182015E-3
1.308000E-7	7.023444E-4
1.309000E-7	3.939846E-4
1.310000E-7	3.203208E-4
1.311000E-7	4.076894E-4
1.312000E-7	5.139023E-4
1.313000E-7	6.526642E-4
1.314000E-7	7.040575E-4
1.315000E-7	7.143361E-4
1.316000E-7	7.982785E-4
1.317000E-7	9.181962E-4
1.318000E-7	1.034688E-3
1.319000E-7	1.146040E-3
1.320000E-7	1.036401E-3
1.321000E-7	7.400328E-4
1.322000E-7	4.042632E-4
1.323000E-7	1.078952E-4
1.324000E-7	-4.799783E-5
1.325000E-7	-1.593500E-4
1.326000E-7	-1.610631E-4
1.327000E-7	-2.141695E-4
1.328000E-7	-1.148091E-4
1.329000E-7	1.538724E-5
1.330000E-7	1.764196E-4
1.331000E-7	2.175342E-4
1.332000E-7	1.832720E-4
1.333000E-7	1.353049E-4
1.334000E-7	8.733786E-5
1.335000E-7	1.353049E-4
1.336000E-7	2.260998E-4
1.337000E-7	5.241809E-4
1.338000E-7	7.194755E-4
1.339000E-7	7.982785E-4
1.340000E-7	5.395989E-4
1.341000E-7	3.117553E-4
1.342000E-7	1.610016E-4
1.343000E-7	3.066159E-4
1.344000E-7	7.006312E-4
1.345000E-7	1.170023E-3
1.346000E-7	1.217990E-3
1.347000E-7	8.736554E-4
1.348000E-7	2.380915E-4
1.349000E-7	-2.758415E-4
1.350000E-7	-4.008985E-4
1.351000E-7	-4.628472E-5
1.352000E-7	5.464513E-4
1.353000E-7	1.056958E-3
1.354000E-7	1.336195E-3
1.355000E-7	1.368744E-3
1.356000E-7	1.182015E-3
1.357000E-7	1.048393E-3
1.358000E-7	1.192294E-3
1.359000E-7	1.380736E-3
1.360000E-7	1.456113E-3
1.361000E-7	1.337908E-3
1.362000E-7	1.058671E-3
1.363000E-7	6.526642E-4
1.364000E-7	2.260998E-4
1.365000E-7	-6.512893E-5
1.366000E-7	-3.409396E-4
1.367000E-7	-5.704964E-4
1.368000E-7	-7.383812E-4
1.369000E-7	-8.034793E-4
1.370000E-7	-8.308891E-4
1.371000E-7	-7.623647E-4
1.372000E-7	-5.807750E-4
1.373000E-7	-2.381530E-4
1.374000E-7	1.866982E-4
1.375000E-7	7.383197E-4
1.376000E-7	1.247113E-3
1.377000E-7	1.754194E-3
1.378000E-7	2.105381E-3
1.379000E-7	2.276692E-3
1.380000E-7	2.161914E-3
1.381000E-7	1.709653E-3
1.382000E-7	1.108351E-3
1.383000E-7	4.213943E-4
1.384000E-7	-6.341582E-5
1.385000E-7	-2.021777E-4
1.386000E-7	5.992810E-5
1.387000E-7	4.385254E-4
1.388000E-7	9.130569E-4
1.389000E-7	1.118630E-3
1.390000E-7	1.142614E-3
1.391000E-7	1.101499E-3
1.392000E-7	1.050106E-3
1.393000E-7	1.008991E-3
1.394000E-7	9.798682E-4
1.395000E-7	8.839340E-4
1.396000E-7	8.051310E-4
1.397000E-7	7.520245E-4
1.398000E-7	7.571639E-4
1.399000E-7	8.462456E-4
1.400000E-7	8.171227E-4
1.401000E-7	6.697953E-4
1.402000E-7	3.408781E-4
1.403000E-7	4.793633E-5
1.404000E-7	-1.544874E-5
1.405000E-7	8.905097E-5
1.406000E-7	5.001974E-4
1.407000E-7	9.507453E-4
1.408000E-7	1.103212E-3
1.409000E-7	1.020983E-3
1.410000E-7	5.344596E-4
1.411000E-7	-7.026826E-5
1.412000E-7	-6.767092E-4
1.413000E-7	-9.045528E-4
1.414000E-7	-6.801354E-4
1.415000E-7	-3.456969E-6
1.416000E-7	7.691556E-4
1.417000E-7	1.493801E-3
1.418000E-7	1.872398E-3
1.419000E-7	1.718219E-3
1.420000E-7	1.238548E-3
1.421000E-7	4.864925E-4
1.422000E-7	-8.397314E-5
1.423000E-7	-2.741284E-4
1.424000E-7	-3.086673E-5
1.425000E-7	5.344596E-4
1.426000E-7	1.104925E-3
1.427000E-7	1.572604E-3
1.428000E-7	1.719932E-3
1.429000E-7	1.670252E-3
1.430000E-7	1.519498E-3
1.431000E-7	1.418424E-3
1.432000E-7	1.569178E-3
1.433000E-7	1.937497E-3
1.434000E-7	2.285258E-3
1.435000E-7	2.391471E-3
1.436000E-7	2.249283E-3
1.437000E-7	1.776464E-3
1.438000E-7	1.164884E-3
1.439000E-7	6.783608E-4
1.440000E-7	3.905583E-4
1.441000E-7	3.460175E-4
1.442000E-7	4.196812E-4
1.443000E-7	4.128288E-4
1.444000E-7	1.627147E-4
1.445000E-7	-2.364399E-4
1.446000E-7	-6.578650E-4
1.447000E-7	-9.268233E-4
1.448000E-7	-9.884952E-4
1.449000E-7	-7.983400E-4
1.450000E-7	-3.323741E-4
1.451000E-7	2.500833E-4
1.452000E-7	6.989181E-4
1.453000E-7	8.342538E-4
1.454000E-7	6.732215E-4
1.455000E-7	3.648617E-4
1.456000E-7	7.191987E-5
1.457000E-7	-9.082558E-5
1.458000E-7	-4.628472E-5
1.459000E-7	2.209604E-4
1.460000E-7	6.115495E-4
1.461000E-7	9.130569E-4
1.462000E-7	9.644502E-4
1.463000E-7	9.284749E-4
1.464000E-7	7.571639E-4
1.465000E-7	5.344596E-4
1.466000E-7	4.094025E-4
1.467000E-7	3.734272E-4
1.468000E-7	6.201151E-4
1.469000E-7	1.008991E-3
1.470000E-7	1.317351E-3
1.471000E-7	1.423564E-3
1.472000E-7	1.450973E-3
1.473000E-7	1.245400E-3
1.474000E-7	1.101499E-3
1.475000E-7	1.065524E-3
1.476000E-7	1.267671E-3
1.477000E-7	1.569178E-3
1.478000E-7	1.923792E-3
1.479000E-7	2.113947E-3
1.480000E-7	1.997456E-3
1.481000E-7	1.793595E-3
1.482000E-7	1.382449E-3
1.483000E-7	9.490322E-4
1.484000E-7	5.927053E-4
1.485000E-7	4.042632E-4
1.486000E-7	1.610016E-4
1.487000E-7	6.506743E-5
1.488000E-7	-3.074933E-8
1.489000E-7	4.622322E-5
1.490000E-7	2.260998E-4
1.491000E-7	3.956977E-4
1.492000E-7	6.800739E-4
1.493000E-7	9.781551E-4
1.494000E-7	1.224843E-3
1.495000E-7	1.526350E-3
1.496000E-7	1.757620E-3
1.497000E-7	1.855267E-3
1.498000E-7	1.666825E-3
1.499000E-7	1.504080E-3
1.500000E-7	1.349900E-3
1.501000E-7	1.228269E-3
1.502000E-7	1.217990E-3
1.503000E-7	1.255679E-3
1.504000E-7	1.337908E-3
1.505000E-7	1.235122E-3
1.506000E-7	9.747288E-4
1.507000E-7	4.590827E-4
1.508000E-7	-4.285850E-5
1.509000E-7	-4.985458E-4
1.510000E-7	-6.133241E-4
1.511000E-7	-5.191031E-4
1.512000E-7	-2.313006E-4
1.513000E-7	2.809193E-4
1.514000E-7	6.852133E-4
1.515000E-7	1.055245E-3
1.516000E-7	1.180302E-3
1.517000E-7	1.156319E-3
1.518000E-7	1.072376E-3
1.519000E-7	9.096307E-4
1.520000E-7	7.742950E-4
1.521000E-7	7.177623E-4
1.522000E-7	7.211886E-4
1.523000E-7	7.760081E-4
1.524000E-7	8.239752E-4
1.525000E-7	7.314672E-4
1.526000E-7	5.790004E-4
1.527000E-7	4.539434E-4
1.528000E-7	3.014766E-4
1.529000E-7	2.792062E-4
1.530000E-7	3.151815E-4
1.531000E-7	4.231074E-4
1.532000E-7	3.871321E-4
1.533000E-7	2.192473E-4
1.534000E-7	-6.684204E-5
1.535000E-7	-3.700625E-4
1.536000E-7	-6.116110E-4
1.537000E-7	-5.585046E-4
1.538000E-7	-2.587104E-4
1.539000E-7	-5.170079E-6
1.540000E-7	1.781327E-4
1.541000E-7	1.147476E-4
1.542000E-7	-4.971094E-5
1.543000E-7	-1.679155E-4
1.544000E-7	-2.844070E-4
1.545000E-7	-3.443659E-4
1.546000E-7	-3.563576E-4
1.547000E-7	-3.083906E-4
1.548000E-7	-3.529314E-4
1.549000E-7	-3.066774E-4
1.550000E-7	-2.467186E-4
1.551000E-7	1.682361E-6
1.552000E-7	2.860586E-4
1.553000E-7	6.235413E-4
1.554000E-7	8.548111E-4
1.555000E-7	7.400328E-4
1.556000E-7	3.117553E-4
1.557000E-7	-1.199484E-4
1.558000E-7	-3.991854E-4
1.559000E-7	-3.375134E-4
1.560000E-7	-1.422189E-4
1.561000E-7	1.044690E-4
1.562000E-7	2.980504E-4
1.563000E-7	2.260998E-4
1.564000E-7	-1.662024E-4
1.565000E-7	-5.619308E-4
1.566000E-7	-7.794958E-4
1.567000E-7	-6.852748E-4
1.568000E-7	-4.026116E-4
1.569000E-7	-3.456969E-6
1.570000E-7	3.939846E-4
1.571000E-7	7.862867E-4
1.572000E-7	9.558846E-4
1.573000E-7	1.187154E-3
1.574000E-7	1.437269E-3
1.575000E-7	1.598301E-3
1.576000E-7	1.591448E-3
1.577000E-7	1.430416E-3
1.578000E-7	1.115204E-3
1.579000E-7	7.177623E-4
1.580000E-7	5.070498E-4
1.581000E-7	3.545830E-4
1.582000E-7	2.586489E-4
1.583000E-7	1.712803E-4
1.584000E-7	-2.572740E-5
1.585000E-7	-2.227351E-4
1.586000E-7	-2.569973E-4
1.587000E-7	-6.512893E-5
1.588000E-7	3.168946E-4
1.589000E-7	7.160492E-4
1.590000E-7	1.043253E-3
1.591000E-7	1.195720E-3
1.592000E-7	1.187154E-3
1.593000E-7	9.644502E-4
1.594000E-7	6.440986E-4
1.595000E-7	4.025501E-4
1.596000E-7	1.644278E-4
1.597000E-7	9.419030E-5
1.598000E-7	1.404443E-4
1.599000E-7	3.014766E-4
1.600000E-7	6.389593E-4
1.601000E-7	9.456060E-4
1.602000E-7	1.139187E-3
1.603000E-7	1.163171E-3
1.604000E-7	1.128909E-3
1.605000E-7	1.084368E-3
1.606000E-7	8.805078E-4
1.607000E-7	6.749346E-4
1.608000E-7	3.014766E-4
1.609000E-7	-1.011042E-4
1.610000E-7	-3.837674E-4
1.611000E-7	-5.396604E-4
1.612000E-7	-4.420131E-4
1.613000E-7	-1.593500E-4
1.614000E-7	1.935507E-4
1.615000E-7	4.196812E-4
1.616000E-7	4.488041E-4
1.617000E-7	5.190416E-4
1.618000E-7	5.550169E-4
1.619000E-7	6.920657E-4
1.620000E-7	7.074837E-4
1.621000E-7	6.612297E-4
1.622000E-7	4.488041E-4
1.623000E-7	1.164607E-4
1.624000E-7	-2.295875E-4
1.625000E-7	-4.180296E-4
1.626000E-7	-2.861201E-4
1.627000E-7	1.524360E-4
1.628000E-7	6.595166E-4
1.629000E-7	1.128909E-3
1.630000E-7	1.466391E-3
1.631000E-7	1.557186E-3
1.632000E-7	1.462965E-3
1.633000E-7	1.209425E-3
1.634000E-7	8.685160E-4
1.635000E-7	4.179681E-4
1.636000E-7	1.027559E-4
1.637000E-7	-6.512893E-5
1.638000E-7	-9.082558E-5
1.639000E-7	-1.250878E-4
1.640000E-7	-3.456969E-6
1.641000E-7	1.096083E-4
1.642000E-7	2.860586E-4
1.643000E-7	5.550169E-4
1.644000E-7	8.051310E-4
1.645000E-7	9.250487E-4
1.646000E-7	9.730157E-4
1.647000E-7	9.490322E-4
1.648000E-7	7.040575E-4
1.649000E-7	5.807135E-4
1.650000E-7	5.293202E-4
1.651000E-7	6.184020E-4
1.652000E-7	8.188358E-4
1.653000E-7	1.034688E-3
1.654000E-7	1.164884E-3
1.655000E-7	1.271097E-3
1.656000E-7	1.158032E-3
1.657000E-7	1.108351E-3
1.658000E-7	1.055245E-3
1.659000E-7	9.250487E-4
1.660000E-7	7.811474E-4
1.661000E-7	6.132626E-4
1.662000E-7	5.378858E-4
1.663000E-7	4.642221E-4
1.664000E-7	4.864925E-4
1.665000E-7	5.790004E-4
1.666000E-7	6.492379E-4
1.667000E-7	6.492379E-4
1.668000E-7	5.687218E-4
1.669000E-7	4.385254E-4
1.670000E-7	2.860586E-4
1.671000E-7	2.552226E-4
1.672000E-7	4.145419E-4
1.673000E-7	8.154096E-4
1.674000E-7	1.296794E-3
1.675000E-7	1.673678E-3
1.676000E-7	1.793595E-3
1.677000E-7	1.413285E-3
1.678000E-7	7.537377E-4
1.679000E-7	1.918376E-4
1.680000E-7	-6.883189E-6
1.681000E-7	2.398047E-4
1.682000E-7	8.685160E-4
1.683000E-7	1.334482E-3
1.684000E-7	1.519498E-3
1.685000E-7	1.355039E-3
1.686000E-7	9.713026E-4
1.687000E-7	6.064102E-4
1.688000E-7	4.967712E-4
1.689000E-7	7.640163E-4
1.690000E-7	1.159745E-3
1.691000E-7	1.406433E-3
1.692000E-7	1.255679E-3
1.693000E-7	7.434590E-4
1.694000E-7	2.860586E-4
1.695000E-7	8.733786E-5
1.696000E-7	2.757800E-4
1.697000E-7	7.623032E-4
1.698000E-7	1.260818E-3
1.699000E-7	1.492088E-3
1.700000E-7	1.301933E-3
1.701000E-7	7.657294E-4
1.702000E-7	1.216001E-4
1.703000E-7	-1.011042E-4
1.704000E-7	3.080523E-5
1.705000E-7	4.522303E-4
1.706000E-7	8.034178E-4
1.707000E-7	8.924996E-4
1.708000E-7	6.766477E-4
1.709000E-7	2.380915E-4
1.710000E-7	-1.764811E-4
1.711000E-7	-3.066774E-4
1.712000E-7	-1.576369E-4
1.713000E-7	2.757800E-4
1.714000E-7	8.256883E-4
1.715000E-7	1.281376E-3
1.716000E-7	1.529776E-3
1.717000E-7	1.622284E-3
1.718000E-7	1.596588E-3
1.719000E-7	1.600014E-3
1.720000E-7	1.612006E-3
1.721000E-7	1.822718E-3
1.722000E-7	1.964906E-3
1.723000E-7	2.148209E-3
1.724000E-7	2.163627E-3
1.725000E-7	2.127652E-3
1.726000E-7	1.906661E-3
1.727000E-7	1.589735E-3
1.728000E-7	1.349900E-3
1.729000E-7	1.214564E-3
1.730000E-7	1.065524E-3
1.731000E-7	8.942127E-4
1.732000E-7	7.777212E-4
1.733000E-7	8.428194E-4
1.734000E-7	1.005565E-3
1.735000E-7	1.284802E-3
1.736000E-7	1.444121E-3
1.737000E-7	1.466391E-3
1.738000E-7	1.080942E-3
1.739000E-7	5.875660E-4
1.740000E-7	3.080523E-5
1.741000E-7	-2.056040E-4
1.742000E-7	-2.073171E-4
1.743000E-7	4.793633E-5
1.744000E-7	4.470910E-4
1.745000E-7	8.445325E-4
1.746000E-7	9.353273E-4
1.747000E-7	8.976389E-4
1.748000E-7	7.143361E-4
1.749000E-7	5.276071E-4
1.750000E-7	5.481645E-4
1.751000E-7	7.366066E-4
1.752000E-7	9.558846E-4
1.753000E-7	1.216277E-3
1.754000E-7	1.360179E-3
1.755000E-7	1.279662E-3
1.756000E-7	9.730157E-4
1.757000E-7	5.481645E-4
1.758000E-7	1.096083E-4
1.759000E-7	-2.826939E-4
1.760000E-7	-5.191031E-4
1.761000E-7	-7.640778E-4
1.762000E-7	-6.887010E-4
1.763000E-7	-4.283083E-4
1.764000E-7	5.821499E-5
1.765000E-7	6.920657E-4
1.766000E-7	1.236835E-3
1.767000E-7	1.623998E-3
1.768000E-7	1.798735E-3
1.769000E-7	1.692522E-3
1.770000E-7	1.531490E-3
1.771000E-7	1.385875E-3
1.772000E-7	1.272810E-3
1.773000E-7	1.014130E-3
1.774000E-7	7.040575E-4
1.775000E-7	4.076894E-4
1.776000E-7	1.884114E-4
1.777000E-7	1.267394E-4
1.778000E-7	1.747065E-4
1.779000E-7	2.089687E-4
1.780000E-7	2.620751E-4
1.781000E-7	3.288864E-4
1.782000E-7	2.894848E-4
1.783000E-7	3.168946E-4
1.784000E-7	5.550169E-4
1.785000E-7	7.691556E-4
1.786000E-7	8.942127E-4
1.787000E-7	8.376800E-4
1.788000E-7	6.629428E-4
1.789000E-7	3.408781E-4
1.790000E-7	3.251834E-5
1.791000E-7	-2.775546E-4
1.792000E-7	-3.974723E-4
1.793000E-7	-4.077509E-4
1.794000E-7	-2.484317E-4
1.795000E-7	-8.739936E-5
1.796000E-7	9.076408E-5
1.797000E-7	2.620751E-4
1.798000E-7	2.329522E-4
1.799000E-7	4.451011E-5
1.800000E-7	-1.918991E-4
1.801000E-7	-4.265951E-4
1.802000E-7	-4.865540E-4
1.803000E-7	-3.597839E-4
1.804000E-7	-1.422189E-4
1.805000E-7	1.318787E-4
1.806000E-7	2.243867E-4
1.807000E-7	2.295260E-4
1.808000E-7	5.650188E-5
1.809000E-7	3.594456E-5
1.810000E-7	4.279700E-5
1.811000E-7	2.004031E-4
1.812000E-7	4.196812E-4
1.813000E-7	6.355331E-4
1.814000E-7	7.691556E-4
1.815000E-7	9.438929E-4
1.816000E-7	1.147753E-3
1.817000E-7	1.392728E-3
1.818000E-7	1.500654E-3
1.819000E-7	1.445834E-3
1.820000E-7	1.253966E-3
1.821000E-7	8.428194E-4
1.822000E-7	3.117553E-4
1.823000E-7	-1.662024E-4
1.824000E-7	-4.403000E-4
1.825000E-7	-4.403000E-4
1.826000E-7	-1.011042E-4
1.827000E-7	4.402385E-4
1.828000E-7	1.044966E-3
1.829000E-7	1.534916E-3
1.830000E-7	1.682243E-3
1.831000E-7	1.581170E-3
1.832000E-7	1.116917E-3
1.833000E-7	7.503114E-4
1.834000E-7	4.539434E-4
1.835000E-7	5.019105E-4
1.836000E-7	8.393932E-4
1.837000E-7	1.361892E-3
1.838000E-7	1.687383E-3
1.839000E-7	1.773038E-3
1.840000E-7	1.601727E-3
1.841000E-7	1.231695E-3
1.842000E-7	8.325407E-4
1.843000E-7	5.104760E-4
1.844000E-7	5.070498E-4
1.845000E-7	6.423855E-4
1.846000E-7	8.942127E-4
1.847000E-7	1.038114E-3
1.848000E-7	1.082655E-3
1.849000E-7	1.104925E-3
1.850000E-7	1.158032E-3
1.851000E-7	1.194007E-3
1.852000E-7	1.185441E-3
1.853000E-7	1.202572E-3
1.854000E-7	1.050106E-3
1.855000E-7	8.753685E-4
1.856000E-7	5.310334E-4
1.857000E-7	3.717141E-4
1.858000E-7	3.837059E-4
1.859000E-7	5.533038E-4
1.860000E-7	5.344596E-4
1.861000E-7	2.997635E-4
1.862000E-7	-2.330137E-4
1.863000E-7	-8.171842E-4
1.864000E-7	-1.192355E-3
1.865000E-7	-1.098134E-3
1.866000E-7	-5.756357E-4
1.867000E-7	2.877717E-4
1.868000E-7	1.072376E-3
1.869000E-7	1.504080E-3
1.870000E-7	1.522924E-3
1.871000E-7	1.411572E-3
1.872000E-7	1.265958E-3
1.873000E-7	1.255679E-3
1.874000E-7	1.391015E-3
1.875000E-7	1.526350E-3
1.876000E-7	1.473244E-3
1.877000E-7	1.185441E-3
1.878000E-7	8.034178E-4
1.879000E-7	4.573696E-4
1.880000E-7	3.014766E-4
1.881000E-7	2.877717E-4
1.882000E-7	4.607958E-4
1.883000E-7	6.560904E-4
1.884000E-7	7.451721E-4
1.885000E-7	6.886395E-4
1.886000E-7	5.618693E-4
1.887000E-7	5.447382E-4
1.888000E-7	5.190416E-4
1.889000E-7	5.361727E-4
1.890000E-7	6.218282E-4
1.891000E-7	7.794343E-4
1.892000E-7	1.002139E-3
1.893000E-7	1.007278E-3
1.894000E-7	7.451721E-4
1.895000E-7	3.871321E-4
1.896000E-7	-1.456451E-4
1.897000E-7	-6.304552E-4
1.898000E-7	-1.050167E-3
1.899000E-7	-1.257453E-3
1.900000E-7	-1.176937E-3
1.901000E-7	-7.400943E-4
1.902000E-7	-1.850466E-4
1.903000E-7	4.642221E-4
1.904000E-7	9.884337E-4
1.905000E-7	1.197433E-3
1.906000E-7	1.062097E-3
1.907000E-7	7.434590E-4
1.908000E-7	4.094025E-4
1.909000E-7	3.357388E-4
1.910000E-7	5.087629E-4
1.911000E-7	9.678764E-4
1.912000E-7	1.519498E-3
1.913000E-7	1.821005E-3
1.914000E-7	1.654834E-3
1.915000E-7	1.055245E-3
1.916000E-7	2.415178E-4
1.917000E-7	-5.447997E-4
1.918000E-7	-1.086142E-3
1.919000E-7	-1.183790E-3
1.920000E-7	-1.110126E-3
1.921000E-7	-9.285364E-4
1.922000E-7	-7.315287E-4
1.923000E-7	-6.133241E-4
1.924000E-7	-4.814147E-4
1.925000E-7	-2.792677E-4
1.926000E-7	5.136255E-5
1.927000E-7	4.590827E-4
1.928000E-7	8.274014E-4
1.929000E-7	1.077515E-3
1.930000E-7	1.229982E-3
1.931000E-7	1.235122E-3
1.932000E-7	1.146040E-3
1.933000E-7	1.029548E-3
1.934000E-7	9.850075E-4
1.935000E-7	9.575977E-4
1.936000E-7	9.695895E-4
1.937000E-7	9.695895E-4
1.938000E-7	8.685160E-4
1.939000E-7	7.777212E-4
1.940000E-7	7.605901E-4
1.941000E-7	8.805078E-4
1.942000E-7	8.976389E-4
1.943000E-7	9.473191E-4
1.944000E-7	1.012417E-3
1.945000E-7	1.247113E-3
1.946000E-7	1.612006E-3
1.947000E-7	1.798735E-3
1.948000E-7	1.826145E-3
1.949000E-7	1.608580E-3
1.950000E-7	1.399580E-3
1.951000E-7	1.173450E-3
1.952000E-7	1.048393E-3
1.953000E-7	1.214564E-3
1.954000E-7	1.466391E-3
1.955000E-7	1.557186E-3
1.956000E-7	1.379023E-3
1.957000E-7	9.884337E-4
1.958000E-7	6.560904E-4
1.959000E-7	4.419516E-4
1.960000E-7	5.224678E-4
1.961000E-7	6.766477E-4
1.962000E-7	7.674425E-4
1.963000E-7	8.685160E-4
1.964000E-7	7.554508E-4
1.965000E-7	6.046971E-4
1.966000E-7	5.001974E-4
1.967000E-7	4.539434E-4
1.968000E-7	4.710745E-4
1.969000E-7	5.190416E-4
1.970000E-7	3.734272E-4
1.971000E-7	7.191987E-5
1.972000E-7	-2.261613E-4
1.973000E-7	-3.443659E-4
1.974000E-7	-2.175957E-4
1.975000E-7	2.517964E-4
1.976000E-7	8.291145E-4
1.977000E-7	1.514358E-3
1.978000E-7	1.891243E-3
1.979000E-7	1.802161E-3
1.980000E-7	1.188868E-3
1.981000E-7	3.511568E-4
1.982000E-7	-3.683494E-4
1.983000E-7	-7.212501E-4
1.984000E-7	-6.578650E-4
1.985000E-7	-2.073171E-4
1.986000E-7	3.648617E-4
1.987000E-7	7.931392E-4
1.988000E-7	9.610240E-4
1.989000E-7	8.907865E-4
1.990000E-7	6.972050E-4
1.991000E-7	5.670087E-4
1.992000E-7	5.447382E-4
1.993000E-7	6.715084E-4
1.994000E-7	8.188358E-4
1.995000E-7	7.554508E-4
1.996000E-7	4.693614E-4
1.997000E-7	-1.165222E-4
1.998000E-7	-8.428809E-4
1.999000E-7	-1.324265E-3
2.000000E-7	-1.310560E-3
2.001000E-7	-7.932007E-4
