Study Name	Tungsten_Calibration
Sample Name	2024-10-03
Run Name	spot_00
Operator	Elena
Date	10/3/2024
Time	10:15
Sign	FIX
Grating Spacing	03.40um
Channel	3
Number Traces	10000
Files in Batch	1
Batch Number	1
dt	100.000001E-12
time stamp (ms)	10:15:37 AM
	
Time	Amplitude
0.000000E+0	2.449721E-4
1.000000E-10	3.391844E-4
2.000000E-10	5.327477E-4
3.000000E-10	7.657089E-4
4.000000E-10	9.832536E-4
5.000000E-10	1.036355E-3
6.000000E-10	9.626982E-4
7.000000E-10	7.400147E-4
8.000000E-10	4.813592E-4
9.000000E-10	2.261297E-4
1.000000E-9	9.251957E-5
1.100000E-9	7.710302E-5
1.200000E-9	2.107131E-4
1.300000E-9	3.974247E-4
1.400000E-9	5.824233E-4
1.500000E-9	7.057557E-4
1.600000E-9	7.485794E-4
1.700000E-9	7.554312E-4
1.800000E-9	7.742737E-4
1.900000E-9	8.308010E-4
2.000000E-9	8.839025E-4
2.100000E-9	9.404298E-4
2.200000E-9	9.541334E-4
2.300000E-9	8.907543E-4
2.400000E-9	7.708478E-4
2.500000E-9	6.800614E-4
2.600000E-9	6.338118E-4
2.700000E-9	6.081175E-4
2.800000E-9	5.978398E-4
2.900000E-9	5.944139E-4
3.000000E-9	6.029787E-4
3.100000E-9	5.567290E-4
3.200000E-9	5.070535E-4
3.300000E-9	4.539520E-4
3.400000E-9	4.128412E-4
3.500000E-9	4.162671E-4
3.600000E-9	4.608038E-4
3.700000E-9	5.258959E-4
3.800000E-9	6.149693E-4
3.900000E-9	6.766355E-4
4.000000E-9	7.502924E-4
4.100000E-9	8.085327E-4
4.200000E-9	7.879773E-4
4.300000E-9	6.834873E-4
4.400000E-9	5.139053E-4
4.500000E-9	3.186290E-4
4.600000E-9	2.004354E-4
4.700000E-9	1.130750E-4
4.800000E-9	1.147879E-4
4.900000E-9	1.336304E-4
5.000000E-9	2.141390E-4
5.100000E-9	2.912218E-4
5.200000E-9	3.460362E-4
5.300000E-9	4.573779E-4
5.400000E-9	5.550161E-4
5.500000E-9	5.978398E-4
5.600000E-9	5.207571E-4
5.700000E-9	2.792311E-4
5.800000E-9	2.057567E-5
5.900000E-9	-1.609970E-4
6.000000E-9	-1.524323E-4
6.100000E-9	2.742747E-5
6.200000E-9	3.049254E-4
6.300000E-9	5.447384E-4
6.400000E-9	6.320988E-4
6.500000E-9	5.344607E-4
6.600000E-9	3.494621E-4
6.700000E-9	1.473340E-4
6.800000E-9	5.159115E-6
6.900000E-9	-7.706249E-5
7.000000E-9	-8.905314E-5
7.100000E-9	1.372386E-5
7.200000E-9	2.295556E-4
7.300000E-9	4.539520E-4
7.400000E-9	6.509413E-4
7.500000E-9	7.143204E-4
7.600000E-9	6.852003E-4
7.700000E-9	5.036276E-4
7.800000E-9	2.689534E-4
7.900000E-9	1.113620E-4
8.000000E-9	1.250656E-4
8.100000E-9	2.415462E-4
8.200000E-9	3.802952E-4
8.300000E-9	4.556650E-4
8.400000E-9	3.957117E-4
8.500000E-9	2.638146E-4
8.600000E-9	1.113620E-4
8.700000E-9	-1.025744E-5
8.800000E-9	-2.053514E-5
8.900000E-9	1.130750E-4
9.000000E-9	2.929347E-4
9.100000E-9	5.087664E-4
9.200000E-9	7.074686E-4
9.300000E-9	7.400147E-4
9.400000E-9	7.091816E-4
9.500000E-9	5.927010E-4
9.600000E-9	4.590909E-4
9.700000E-9	3.854340E-4
9.800000E-9	3.665916E-4
9.900000E-9	4.128412E-4
1.000000E-8	4.899240E-4
1.010000E-8	5.841362E-4
1.020000E-8	6.800614E-4
1.030000E-8	7.657089E-4
1.040000E-8	8.290881E-4
1.050000E-8	9.130226E-4
1.060000E-8	9.729759E-4
1.070000E-8	9.918183E-4
1.080000E-8	9.438557E-4
1.090000E-8	8.342269E-4
1.100000E-8	7.365888E-4
1.110000E-8	7.537183E-4
1.120000E-8	8.051068E-4
1.130000E-8	9.267262E-4
1.140000E-8	1.014087E-3
1.150000E-8	9.798277E-4
1.160000E-8	7.948291E-4
1.170000E-8	4.967758E-4
1.180000E-8	2.192779E-4
1.190000E-8	5.312172E-5
1.200000E-8	7.710302E-5
1.210000E-8	2.209908E-4
1.220000E-8	3.785822E-4
1.230000E-8	4.625168E-4
1.240000E-8	4.779333E-4
1.250000E-8	4.642297E-4
1.260000E-8	4.796463E-4
1.270000E-8	5.121923E-4
1.280000E-8	5.670067E-4
1.290000E-8	5.241830E-4
1.300000E-8	4.916369E-4
1.310000E-8	4.505261E-4
1.320000E-8	4.676556E-4
1.330000E-8	6.132564E-4
1.340000E-8	8.530694E-4
1.350000E-8	1.094595E-3
1.360000E-8	1.200798E-3
1.370000E-8	1.164826E-3
1.380000E-8	1.000383E-3
1.390000E-8	7.879773E-4
1.400000E-8	6.663578E-4
1.410000E-8	6.149693E-4
1.420000E-8	6.612190E-4
1.430000E-8	7.280240E-4
1.440000E-8	7.794125E-4
1.450000E-8	8.342269E-4
1.460000E-8	8.530694E-4
1.470000E-8	8.445046E-4
1.480000E-8	8.462176E-4
1.490000E-8	8.376528E-4
1.500000E-8	8.033938E-4
1.510000E-8	7.348758E-4
1.520000E-8	6.372377E-4
1.530000E-8	4.830722E-4
1.540000E-8	3.546009E-4
1.550000E-8	2.398333E-4
1.560000E-8	1.713153E-4
1.570000E-8	1.970095E-4
1.580000E-8	3.237678E-4
1.590000E-8	5.395995E-4
1.600000E-8	7.297370E-4
1.610000E-8	9.215874E-4
1.620000E-8	9.866795E-4
1.630000E-8	8.719118E-4
1.640000E-8	6.320988E-4
1.650000E-8	3.785822E-4
1.660000E-8	2.569628E-4
1.670000E-8	3.186290E-4
1.680000E-8	6.320988E-4
1.690000E-8	1.015800E-3
1.700000E-8	1.317279E-3
1.710000E-8	1.365241E-3
1.720000E-8	1.228205E-3
1.730000E-8	9.335780E-4
1.740000E-8	6.389506E-4
1.750000E-8	4.676556E-4
1.760000E-8	4.590909E-4
1.770000E-8	5.601549E-4
1.780000E-8	7.588571E-4
1.790000E-8	9.387169E-4
1.800000E-8	1.008948E-3
1.810000E-8	8.976061E-4
1.820000E-8	6.355247E-4
1.830000E-8	3.391844E-4
1.840000E-8	1.850189E-4
1.850000E-8	2.021484E-4
1.860000E-8	3.597398E-4
1.870000E-8	6.406636E-4
1.880000E-8	8.359399E-4
1.890000E-8	8.753377E-4
1.900000E-8	7.314499E-4
1.910000E-8	5.053405E-4
1.920000E-8	3.066383E-4
1.930000E-8	3.717304E-4
1.940000E-8	8.616341E-4
1.950000E-8	1.985329E-3
1.960000E-8	3.876426E-3
1.970000E-8	6.639415E-3
1.980000E-8	1.010129E-2
1.990000E-8	1.408047E-2
2.000000E-8	1.822923E-2
2.010000E-8	2.219985E-2
2.020000E-8	2.564460E-2
2.030000E-8	2.828083E-2
2.040000E-8	2.990128E-2
2.050000E-8	3.046312E-2
2.060000E-8	2.977623E-2
2.070000E-8	2.800847E-2
2.080000E-8	2.550585E-2
2.090000E-8	2.267263E-2
2.100000E-8	2.004154E-2
2.110000E-8	1.801340E-2
2.120000E-8	1.684175E-2
2.130000E-8	1.643064E-2
2.140000E-8	1.665675E-2
2.150000E-8	1.732994E-2
2.160000E-8	1.812474E-2
2.170000E-8	1.881164E-2
2.180000E-8	1.918506E-2
2.190000E-8	1.910798E-2
2.200000E-8	1.842965E-2
2.210000E-8	1.708156E-2
2.220000E-8	1.525213E-2
2.230000E-8	1.329423E-2
2.240000E-8	1.158641E-2
2.250000E-8	1.045244E-2
2.260000E-8	1.012869E-2
2.270000E-8	1.048156E-2
2.280000E-8	1.138086E-2
2.290000E-8	1.247886E-2
2.300000E-8	1.350834E-2
2.310000E-8	1.413528E-2
2.320000E-8	1.419524E-2
2.330000E-8	1.365566E-2
2.340000E-8	1.254224E-2
2.350000E-8	1.106739E-2
2.360000E-8	9.470921E-3
2.370000E-8	8.059450E-3
2.380000E-8	7.151587E-3
2.390000E-8	6.887792E-3
2.400000E-8	7.338298E-3
2.410000E-8	8.369494E-3
2.420000E-8	9.799808E-3
2.430000E-8	1.117359E-2
2.440000E-8	1.220136E-2
2.450000E-8	1.262275E-2
2.460000E-8	1.230414E-2
2.470000E-8	1.123869E-2
2.480000E-8	9.630225E-3
2.490000E-8	7.769962E-3
2.500000E-8	6.058725E-3
2.510000E-8	4.780864E-3
2.520000E-8	4.102536E-3
2.530000E-8	4.145359E-3
2.540000E-8	4.897344E-3
2.550000E-8	6.158076E-3
2.560000E-8	7.641490E-3
2.570000E-8	8.970740E-3
2.580000E-8	9.815224E-3
2.590000E-8	9.989945E-3
2.600000E-8	9.376709E-3
2.610000E-8	8.145098E-3
2.620000E-8	6.512656E-3
2.630000E-8	4.827114E-3
2.640000E-8	3.491012E-3
2.650000E-8	2.742453E-3
2.660000E-8	2.749305E-3
2.670000E-8	3.465318E-3
2.680000E-8	4.724337E-3
2.690000E-8	6.156363E-3
2.700000E-8	7.399964E-3
2.710000E-8	8.242736E-3
2.720000E-8	8.492827E-3
2.730000E-8	8.068015E-3
2.740000E-8	7.095059E-3
2.750000E-8	5.726412E-3
2.760000E-8	4.172767E-3
2.770000E-8	2.708194E-3
2.780000E-8	1.622184E-3
2.790000E-8	1.115151E-3
2.800000E-8	1.384084E-3
2.810000E-8	2.341623E-3
2.820000E-8	3.802769E-3
2.830000E-8	5.402665E-3
2.840000E-8	6.783302E-3
2.850000E-8	7.511306E-3
2.860000E-8	7.494177E-3
2.870000E-8	6.637702E-3
2.880000E-8	5.123454E-3
2.890000E-8	3.282033E-3
2.900000E-8	1.558805E-3
2.910000E-8	3.802952E-4
2.920000E-8	-1.692686E-6
2.930000E-8	4.950628E-4
2.940000E-8	1.676998E-3
2.950000E-8	3.239209E-3
2.960000E-8	4.750031E-3
2.970000E-8	5.839467E-3
2.980000E-8	6.295112E-3
2.990000E-8	6.098122E-3
3.000000E-8	5.269055E-3
3.010000E-8	3.979203E-3
3.020000E-8	2.485511E-3
3.030000E-8	1.053485E-3
3.040000E-8	3.085337E-5
3.050000E-8	-3.459956E-4
3.060000E-8	-3.405636E-6
3.070000E-8	9.918183E-4
3.080000E-8	2.363891E-3
3.090000E-8	3.838741E-3
3.100000E-8	5.036093E-3
3.110000E-8	5.717848E-3
3.120000E-8	5.683589E-3
3.130000E-8	4.881928E-3
3.140000E-8	3.518420E-3
3.150000E-8	1.800331E-3
3.160000E-8	1.490469E-4
3.170000E-8	-1.154508E-3
3.180000E-8	-1.771170E-3
3.190000E-8	-1.563903E-3
3.200000E-8	-5.943734E-4
3.210000E-8	9.592723E-4
3.220000E-8	2.744166E-3
3.230000E-8	4.366330E-3
3.240000E-8	5.457479E-3
3.250000E-8	5.758958E-3
3.260000E-8	5.205675E-3
3.270000E-8	3.922676E-3
3.280000E-8	2.264540E-3
3.290000E-8	6.115434E-4
3.300000E-8	-7.399742E-4
3.310000E-8	-1.515941E-3
3.320000E-8	-1.562190E-3
3.330000E-8	-9.815001E-4
3.340000E-8	1.233527E-4
3.350000E-8	1.514268E-3
3.360000E-8	2.977127E-3
3.370000E-8	4.189896E-3
3.380000E-8	4.875076E-3
3.390000E-8	4.820262E-3
3.400000E-8	3.992907E-3
3.410000E-8	2.509492E-3
3.420000E-8	7.194593E-4
3.430000E-8	-8.821490E-4
3.440000E-8	-1.872234E-3
3.450000E-8	-1.995567E-3
3.460000E-8	-1.226452E-3
3.470000E-8	1.850189E-4
3.480000E-8	1.851719E-3
3.490000E-8	3.420782E-3
3.500000E-8	4.628411E-3
3.510000E-8	5.181694E-3
3.520000E-8	5.118315E-3
3.530000E-8	4.381746E-3
3.540000E-8	3.179256E-3
3.550000E-8	1.670147E-3
3.560000E-8	2.090002E-4
3.570000E-8	-9.403893E-4
3.580000E-8	-1.509089E-3
3.590000E-8	-1.385756E-3
3.600000E-8	-5.498367E-4
3.610000E-8	7.725607E-4
3.620000E-8	2.315929E-3
3.630000E-8	3.681150E-3
3.640000E-8	4.573597E-3
3.650000E-8	4.763734E-3
3.660000E-8	4.200174E-3
3.670000E-8	3.061062E-3
3.680000E-8	1.570795E-3
3.690000E-8	8.052892E-5
3.700000E-8	-1.068861E-3
3.710000E-8	-1.599875E-3
3.720000E-8	-1.406312E-3
3.730000E-8	-5.823828E-4
3.740000E-8	6.903391E-4
3.750000E-8	2.100097E-3
3.760000E-8	3.383097E-3
3.770000E-8	4.217303E-3
3.780000E-8	4.474246E-3
3.790000E-8	4.099110E-3
3.800000E-8	3.136432E-3
3.810000E-8	1.767785E-3
3.820000E-8	2.963606E-4
3.830000E-8	-9.575188E-4
3.840000E-8	-1.730059E-3
3.850000E-8	-1.781448E-3
3.860000E-8	-1.075712E-3
3.870000E-8	2.175649E-4
3.880000E-8	1.759220E-3
3.890000E-8	3.122728E-3
3.900000E-8	4.056286E-3
3.910000E-8	4.328645E-3
3.920000E-8	3.907259E-3
3.930000E-8	2.927452E-3
3.940000E-8	1.675285E-3
3.950000E-8	3.854340E-4
3.960000E-8	-7.022893E-4
3.970000E-8	-1.452561E-3
3.980000E-8	-1.728346E-3
3.990000E-8	-1.541635E-3
4.000000E-8	-8.050663E-4
4.010000E-8	3.374714E-4
4.020000E-8	1.670147E-3
4.030000E-8	2.922313E-3
4.040000E-8	3.730825E-3
4.050000E-8	3.924389E-3
4.060000E-8	3.408791E-3
4.070000E-8	2.310790E-3
4.080000E-8	8.547823E-4
4.090000E-8	-5.361331E-4
4.100000E-8	-1.577607E-3
4.110000E-8	-1.959595E-3
4.120000E-8	-1.649551E-3
4.130000E-8	-7.519648E-4
4.140000E-8	4.676556E-4
4.150000E-8	1.762646E-3
4.160000E-8	2.858934E-3
4.170000E-8	3.552679E-3
4.180000E-8	3.701705E-3
4.190000E-8	3.223792E-3
4.200000E-8	2.177180E-3
4.210000E-8	7.537183E-4
4.220000E-8	-7.005763E-4
4.230000E-8	-1.891077E-3
4.240000E-8	-2.499174E-3
4.250000E-8	-2.355286E-3
4.260000E-8	-1.507376E-3
4.270000E-8	-2.055337E-4
4.280000E-8	1.289872E-3
4.290000E-8	2.658519E-3
4.300000E-8	3.634900E-3
4.310000E-8	4.011749E-3
4.320000E-8	3.749668E-3
4.330000E-8	2.898332E-3
4.340000E-8	1.625610E-3
4.350000E-8	2.021484E-4
4.360000E-8	-9.626577E-4
4.370000E-8	-1.618718E-3
4.380000E-8	-1.731772E-3
4.390000E-8	-1.228165E-3
4.400000E-8	-3.031719E-4
4.410000E-8	8.085327E-4
4.420000E-8	1.906534E-3
4.430000E-8	2.697917E-3
4.440000E-8	3.139858E-3
4.450000E-8	3.151848E-3
4.460000E-8	2.687639E-3
4.470000E-8	1.870562E-3
4.480000E-8	7.845514E-4
4.490000E-8	-3.203014E-4
4.500000E-8	-1.149369E-3
4.510000E-8	-1.447423E-3
4.520000E-8	-1.132240E-3
4.530000E-8	-3.168755E-4
4.540000E-8	8.102456E-4
4.550000E-8	1.980191E-3
4.560000E-8	2.886341E-3
4.570000E-8	3.318005E-3
4.580000E-8	3.203237E-3
4.590000E-8	2.644815E-3
4.600000E-8	1.719822E-3
4.610000E-8	7.091816E-4
4.620000E-8	-2.346539E-4
4.630000E-8	-8.684454E-4
4.640000E-8	-1.079138E-3
4.650000E-8	-8.256217E-4
4.660000E-8	-1.078956E-4
4.670000E-8	8.496435E-4
4.680000E-8	1.904821E-3
4.690000E-8	2.730463E-3
4.700000E-8	3.198098E-3
4.710000E-8	3.211802E-3
4.720000E-8	2.761296E-3
4.730000E-8	1.975052E-3
4.740000E-8	9.575593E-4
4.750000E-8	5.159115E-6
4.760000E-8	-7.416871E-4
4.770000E-8	-1.121962E-3
4.780000E-8	-1.046592E-3
4.790000E-8	-5.652533E-4
4.800000E-8	2.501110E-4
4.810000E-8	1.200798E-3
4.820000E-8	2.153198E-3
4.830000E-8	2.829814E-3
4.840000E-8	3.187820E-3
4.850000E-8	3.187820E-3
4.860000E-8	2.752731E-3
4.870000E-8	2.014450E-3
4.880000E-8	1.072327E-3
4.890000E-8	1.010843E-4
4.900000E-8	-6.491878E-4
4.910000E-8	-9.815001E-4
4.920000E-8	-7.965015E-4
4.930000E-8	-1.969690E-4
4.940000E-8	6.492283E-4
4.950000E-8	1.488574E-3
4.960000E-8	2.134356E-3
4.970000E-8	2.464955E-3
4.980000E-8	2.442687E-3
4.990000E-8	2.070977E-3
5.000000E-8	1.498852E-3
5.010000E-8	7.537183E-4
5.020000E-8	-2.567399E-5
5.030000E-8	-7.416871E-4
5.040000E-8	-1.193906E-3
5.050000E-8	-1.205897E-3
5.060000E-8	-7.896497E-4
5.070000E-8	2.742747E-5
5.080000E-8	1.060336E-3
5.090000E-8	2.024727E-3
5.100000E-8	2.668796E-3
5.110000E-8	2.834953E-3
5.120000E-8	2.471807E-3
5.130000E-8	1.752368E-3
5.140000E-8	8.993190E-4
5.150000E-8	1.045102E-4
5.160000E-8	-5.412720E-4
5.170000E-8	-8.358994E-4
5.180000E-8	-8.136310E-4
5.190000E-8	-4.778928E-4
5.200000E-8	8.224187E-5
5.210000E-8	7.759866E-4
5.220000E-8	1.462880E-3
5.230000E-8	2.057273E-3
5.240000E-8	2.339910E-3
5.250000E-8	2.269679E-3
5.260000E-8	1.824312E-3
5.270000E-8	1.192234E-3
5.280000E-8	4.299707E-4
5.290000E-8	-2.003949E-4
5.300000E-8	-6.509008E-4
5.310000E-8	-7.279835E-4
5.320000E-8	-4.093748E-4
5.330000E-8	1.952966E-4
5.340000E-8	9.592723E-4
5.350000E-8	1.665008E-3
5.360000E-8	2.148060E-3
5.370000E-8	2.302225E-3
5.380000E-8	2.141208E-3
5.390000E-8	1.718109E-3
5.400000E-8	1.137419E-3
5.410000E-8	5.533031E-4
5.420000E-8	5.997352E-5
5.430000E-8	-3.374309E-4
5.440000E-8	-5.155777E-4
5.450000E-8	-4.864576E-4
5.460000E-8	-2.021078E-4
5.470000E-8	2.860829E-4
5.480000E-8	9.335780E-4
5.490000E-8	1.565657E-3
5.500000E-8	2.011024E-3
5.510000E-8	2.261114E-3
5.520000E-8	2.182319E-3
5.530000E-8	1.738665E-3
5.540000E-8	1.062049E-3
5.550000E-8	2.483980E-4
5.560000E-8	-4.487726E-4
5.570000E-8	-8.496030E-4
5.580000E-8	-7.862238E-4
5.590000E-8	-2.894683E-4
5.600000E-8	5.002017E-4
5.610000E-8	1.279594E-3
5.620000E-8	1.889404E-3
5.630000E-8	2.137782E-3
5.640000E-8	2.088106E-3
5.650000E-8	1.752368E-3
5.660000E-8	1.272742E-3
5.670000E-8	6.800614E-4
5.680000E-8	1.336304E-4
5.690000E-8	-3.631251E-4
5.700000E-8	-7.502519E-4
5.710000E-8	-8.496030E-4
5.720000E-8	-6.063641E-4
5.730000E-8	-7.534954E-5
5.740000E-8	6.183952E-4
5.750000E-8	1.301862E-3
5.760000E-8	1.733526E-3
5.770000E-8	1.872275E-3
5.780000E-8	1.695841E-3
5.790000E-8	1.272742E-3
5.800000E-8	7.811255E-4
5.810000E-8	3.511750E-4
5.820000E-8	3.256632E-5
5.830000E-8	-1.027567E-4
5.840000E-8	-6.678479E-5
5.850000E-8	1.456210E-4
5.860000E-8	4.745074E-4
5.870000E-8	8.513564E-4
5.880000E-8	1.247048E-3
5.890000E-8	1.635888E-3
5.900000E-8	1.909960E-3
5.910000E-8	1.983616E-3
5.920000E-8	1.759220E-3
5.930000E-8	1.235057E-3
5.940000E-8	5.310348E-4
5.950000E-8	-1.524323E-4
5.960000E-8	-5.995123E-4
5.970000E-8	-7.074281E-4
5.980000E-8	-4.042359E-4
5.990000E-8	1.370563E-4
6.000000E-8	7.297370E-4
6.010000E-8	1.247048E-3
6.020000E-8	1.651304E-3
6.030000E-8	1.865423E-3
6.040000E-8	1.887691E-3
6.050000E-8	1.714683E-3
6.060000E-8	1.283020E-3
6.070000E-8	7.348758E-4
6.080000E-8	6.853827E-5
6.090000E-8	-4.624762E-4
6.100000E-8	-7.211317E-4
6.110000E-8	-6.046511E-4
6.120000E-8	-1.627100E-4
6.130000E-8	4.333966E-4
6.140000E-8	1.036355E-3
6.150000E-8	1.462880E-3
6.160000E-8	1.700980E-3
6.170000E-8	1.697554E-3
6.180000E-8	1.514268E-3
6.190000E-8	1.199085E-3
6.200000E-8	8.325140E-4
6.210000E-8	5.053405E-4
6.220000E-8	2.107131E-4
6.230000E-8	3.085337E-5
6.240000E-8	-3.937759E-5
6.250000E-8	7.367712E-5
6.260000E-8	3.494621E-4
6.270000E-8	7.057557E-4
6.280000E-8	1.060336E-3
6.290000E-8	1.252187E-3
6.300000E-8	1.351538E-3
6.310000E-8	1.344686E-3
6.320000E-8	1.190521E-3
6.330000E-8	9.575593E-4
6.340000E-8	7.434406E-4
6.350000E-8	5.293218E-4
6.360000E-8	3.220549E-4
6.370000E-8	1.764541E-4
6.380000E-8	1.250656E-4
6.390000E-8	2.072872E-4
6.400000E-8	3.820081E-4
6.410000E-8	6.423765E-4
6.420000E-8	9.044579E-4
6.430000E-8	1.145984E-3
6.440000E-8	1.303575E-3
6.450000E-8	1.283020E-3
6.460000E-8	1.137419E-3
6.470000E-8	8.410787E-4
6.480000E-8	5.207571E-4
6.490000E-8	2.655275E-4
6.500000E-8	1.627505E-4
6.510000E-8	2.672405E-4
6.520000E-8	5.293218E-4
6.530000E-8	9.044579E-4
6.540000E-8	1.283020E-3
6.550000E-8	1.575934E-3
6.560000E-8	1.642739E-3
6.570000E-8	1.560518E-3
6.580000E-8	1.348112E-3
6.590000E-8	1.048346E-3
6.600000E-8	7.485794E-4
6.610000E-8	4.471002E-4
6.620000E-8	2.141390E-4
6.630000E-8	7.710302E-5
6.640000E-8	7.539007E-5
6.650000E-8	2.312685E-4
6.660000E-8	5.310348E-4
6.670000E-8	9.267262E-4
6.680000E-8	1.356677E-3
6.690000E-8	1.646165E-3
6.700000E-8	1.778062E-3
6.710000E-8	1.688989E-3
6.720000E-8	1.382371E-3
6.730000E-8	9.421428E-4
6.740000E-8	4.950628E-4
6.750000E-8	1.165009E-4
6.760000E-8	-8.562724E-5
6.770000E-8	-6.335889E-5
6.780000E-8	1.884448E-4
6.790000E-8	6.132564E-4
6.800000E-8	1.103160E-3
6.810000E-8	1.450889E-3
6.820000E-8	1.610193E-3
6.830000E-8	1.495426E-3
6.840000E-8	1.205937E-3
6.850000E-8	8.564953E-4
6.860000E-8	4.916369E-4
6.870000E-8	2.758052E-4
6.880000E-8	2.021484E-4
6.890000E-8	1.507599E-4
6.900000E-8	1.387692E-4
6.910000E-8	5.654762E-5
6.920000E-8	5.997352E-5
6.930000E-8	1.764541E-4
6.940000E-8	4.299707E-4
6.950000E-8	7.879773E-4
6.960000E-8	1.094595E-3
6.970000E-8	1.265890E-3
6.980000E-8	1.252187E-3
6.990000E-8	9.918183E-4
7.000000E-8	6.834873E-4
7.010000E-8	3.854340E-4
7.020000E-8	1.250656E-4
7.030000E-8	1.886272E-5
7.040000E-8	4.798287E-5
7.050000E-8	1.199268E-4
7.060000E-8	2.723793E-4
7.070000E-8	4.899240E-4
7.080000E-8	7.520053E-4
7.090000E-8	1.038068E-3
7.100000E-8	1.288159E-3
7.110000E-8	1.396075E-3
7.120000E-8	1.295011E-3
7.130000E-8	1.000383E-3
7.140000E-8	6.320988E-4
7.150000E-8	2.398333E-4
7.160000E-8	-6.831536E-6
7.170000E-8	-2.909989E-5
7.180000E-8	1.165009E-4
7.190000E-8	3.957117E-4
7.200000E-8	6.800614E-4
7.210000E-8	9.095967E-4
7.220000E-8	1.098021E-3
7.230000E-8	1.219641E-3
7.240000E-8	1.207650E-3
7.250000E-8	1.145984E-3
7.260000E-8	9.558464E-4
7.270000E-8	7.211722E-4
7.280000E-8	5.241830E-4
7.290000E-8	3.580268E-4
7.300000E-8	3.254808E-4
7.310000E-8	3.614527E-4
7.320000E-8	4.145542E-4
7.330000E-8	4.351096E-4
7.340000E-8	4.368225E-4
7.350000E-8	4.282578E-4
7.360000E-8	5.104794E-4
7.370000E-8	6.235341E-4
7.380000E-8	7.502924E-4
7.390000E-8	8.582082E-4
7.400000E-8	8.873284E-4
7.410000E-8	7.931161E-4
7.420000E-8	6.098305E-4
7.430000E-8	3.751563E-4
7.440000E-8	1.764541E-4
7.450000E-8	1.027973E-4
7.460000E-8	1.490469E-4
7.470000E-8	3.014995E-4
7.480000E-8	5.824233E-4
7.490000E-8	8.496435E-4
7.500000E-8	1.058623E-3
7.510000E-8	1.175104E-3
7.520000E-8	1.161400E-3
7.530000E-8	1.050059E-3
7.540000E-8	8.256622E-4
7.550000E-8	5.927010E-4
7.560000E-8	4.299707E-4
7.570000E-8	4.179801E-4
7.580000E-8	5.635808E-4
7.590000E-8	8.308010E-4
7.600000E-8	1.108299E-3
7.610000E-8	1.279594E-3
7.620000E-8	1.271029E-3
7.630000E-8	1.111725E-3
7.640000E-8	8.890413E-4
7.650000E-8	7.314499E-4
7.660000E-8	6.817744E-4
7.670000E-8	6.886262E-4
7.680000E-8	6.954780E-4
7.690000E-8	7.006168E-4
7.700000E-8	7.280240E-4
7.710000E-8	8.564953E-4
7.720000E-8	1.116864E-3
7.730000E-8	1.452602E-3
7.740000E-8	1.716396E-3
7.750000E-8	1.791766E-3
7.760000E-8	1.611906E-3
7.770000E-8	1.221354E-3
7.780000E-8	7.982550E-4
7.790000E-8	4.471002E-4
7.800000E-8	2.329815E-4
7.810000E-8	1.558987E-4
7.820000E-8	1.165009E-4
7.830000E-8	1.387692E-4
7.840000E-8	1.678894E-4
7.850000E-8	2.518239E-4
7.860000E-8	3.802952E-4
7.870000E-8	5.927010E-4
7.880000E-8	8.719118E-4
7.890000E-8	1.111725E-3
7.900000E-8	1.265890E-3
7.910000E-8	1.308714E-3
7.920000E-8	1.245335E-3
7.930000E-8	1.130567E-3
7.940000E-8	1.017513E-3
7.950000E-8	8.667730E-4
7.960000E-8	7.126075E-4
7.970000E-8	6.201082E-4
7.980000E-8	5.841362E-4
7.990000E-8	6.629319E-4
8.000000E-8	8.222363E-4
8.010000E-8	9.798277E-4
8.020000E-8	1.111725E-3
8.030000E-8	1.113438E-3
8.040000E-8	1.005522E-3
8.050000E-8	8.136715E-4
8.060000E-8	6.303859E-4
8.070000E-8	4.916369E-4
8.080000E-8	4.659427E-4
8.090000E-8	5.395995E-4
8.100000E-8	6.800614E-4
8.110000E-8	8.530694E-4
8.120000E-8	9.370039E-4
8.130000E-8	9.575593E-4
8.140000E-8	9.215874E-4
8.150000E-8	9.387169E-4
8.160000E-8	9.901054E-4
8.170000E-8	1.079179E-3
8.180000E-8	1.116864E-3
8.190000E-8	1.092882E-3
8.200000E-8	9.712629E-4
8.210000E-8	7.571442E-4
8.220000E-8	4.779333E-4
8.230000E-8	2.655275E-4
8.240000E-8	2.004354E-4
8.250000E-8	2.535369E-4
8.260000E-8	3.734434E-4
8.270000E-8	5.139053E-4
8.280000E-8	6.577931E-4
8.290000E-8	8.033938E-4
8.300000E-8	9.164485E-4
8.310000E-8	9.113097E-4
8.320000E-8	8.770507E-4
8.330000E-8	8.068197E-4
8.340000E-8	6.800614E-4
8.350000E-8	6.406636E-4
8.360000E-8	7.725607E-4
8.370000E-8	9.832536E-4
8.380000E-8	1.187095E-3
8.390000E-8	1.272742E-3
8.400000E-8	1.145984E-3
8.410000E-8	8.667730E-4
8.420000E-8	5.361736E-4
8.430000E-8	3.014995E-4
8.440000E-8	2.723793E-4
8.450000E-8	3.991376E-4
8.460000E-8	5.909880E-4
8.470000E-8	7.588571E-4
8.480000E-8	8.273751E-4
8.490000E-8	7.725607E-4
8.500000E-8	7.074686E-4
8.510000E-8	7.297370E-4
8.520000E-8	8.102456E-4
8.530000E-8	9.027449E-4
8.540000E-8	9.558464E-4
8.550000E-8	9.044579E-4
8.560000E-8	8.273751E-4
8.570000E-8	6.509413E-4
8.580000E-8	4.573779E-4
8.590000E-8	3.477491E-4
8.600000E-8	3.289067E-4
8.610000E-8	3.665916E-4
8.620000E-8	4.710815E-4
8.630000E-8	5.550161E-4
8.640000E-8	6.389506E-4
8.650000E-8	7.143204E-4
8.660000E-8	8.119586E-4
8.670000E-8	8.736248E-4
8.680000E-8	9.815406E-4
8.690000E-8	1.087744E-3
8.700000E-8	1.111725E-3
8.710000E-8	1.094595E-3
8.720000E-8	1.007235E-3
8.730000E-8	8.564953E-4
8.740000E-8	7.383017E-4
8.750000E-8	7.177463E-4
8.760000E-8	7.639960E-4
8.770000E-8	8.051068E-4
8.780000E-8	8.633471E-4
8.790000E-8	9.078838E-4
8.800000E-8	9.986701E-4
8.810000E-8	1.074040E-3
8.820000E-8	1.120290E-3
8.830000E-8	1.103160E-3
8.840000E-8	1.014087E-3
8.850000E-8	8.804766E-4
8.860000E-8	7.657089E-4
8.870000E-8	7.143204E-4
8.880000E-8	7.040427E-4
8.890000E-8	7.554312E-4
8.900000E-8	8.119586E-4
8.910000E-8	8.102456E-4
8.920000E-8	8.359399E-4
8.930000E-8	8.016809E-4
8.940000E-8	7.194593E-4
8.950000E-8	6.303859E-4
8.960000E-8	5.927010E-4
8.970000E-8	5.670067E-4
8.980000E-8	6.081175E-4
8.990000E-8	7.006168E-4
9.000000E-8	8.205233E-4
9.010000E-8	9.233003E-4
9.020000E-8	1.010661E-3
9.030000E-8	1.012374E-3
9.040000E-8	9.832536E-4
9.050000E-8	9.181615E-4
9.060000E-8	8.736248E-4
9.070000E-8	8.205233E-4
9.080000E-8	8.684859E-4
9.090000E-8	9.130226E-4
9.100000E-8	9.644111E-4
9.110000E-8	8.856154E-4
9.120000E-8	7.126075E-4
9.130000E-8	5.156182E-4
9.140000E-8	3.871470E-4
9.150000E-8	3.357585E-4
9.160000E-8	4.368225E-4
9.170000E-8	6.183952E-4
9.180000E-8	8.239492E-4
9.190000E-8	9.455687E-4
9.200000E-8	9.113097E-4
9.210000E-8	7.691348E-4
9.220000E-8	6.132564E-4
9.230000E-8	5.121923E-4
9.240000E-8	4.693686E-4
9.250000E-8	5.207571E-4
9.260000E-8	6.149693E-4
9.270000E-8	6.629319E-4
9.280000E-8	6.509413E-4
9.290000E-8	6.166823E-4
9.300000E-8	6.338118E-4
9.310000E-8	7.143204E-4
9.320000E-8	8.547823E-4
9.330000E-8	1.014087E-3
9.340000E-8	1.062049E-3
9.350000E-8	1.055197E-3
9.360000E-8	9.318651E-4
9.370000E-8	7.605701E-4
9.380000E-8	6.303859E-4
9.390000E-8	5.378866E-4
9.400000E-8	5.019146E-4
9.410000E-8	5.002017E-4
9.420000E-8	4.693686E-4
9.430000E-8	4.505261E-4
9.440000E-8	4.830722E-4
9.450000E-8	5.224700E-4
9.460000E-8	5.944139E-4
9.470000E-8	6.937650E-4
9.480000E-8	7.451535E-4
9.490000E-8	7.057557E-4
9.500000E-8	5.875621E-4
9.510000E-8	3.974247E-4
9.520000E-8	2.792311E-4
9.530000E-8	2.672405E-4
9.540000E-8	3.083513E-4
9.550000E-8	3.802952E-4
9.560000E-8	4.590909E-4
9.570000E-8	5.481643E-4
9.580000E-8	6.081175E-4
9.590000E-8	5.892751E-4
9.600000E-8	5.841362E-4
9.610000E-8	6.543672E-4
9.620000E-8	7.725607E-4
9.630000E-8	9.952442E-4
9.640000E-8	1.265890E-3
9.650000E-8	1.480009E-3
9.660000E-8	1.548527E-3
9.670000E-8	1.459454E-3
9.680000E-8	1.192234E-3
9.690000E-8	8.445046E-4
9.700000E-8	5.618679E-4
9.710000E-8	4.162671E-4
9.720000E-8	3.734434E-4
9.730000E-8	3.974247E-4
9.740000E-8	4.830722E-4
9.750000E-8	5.293218E-4
9.760000E-8	5.019146E-4
9.770000E-8	4.077024E-4
9.780000E-8	2.929347E-4
9.790000E-8	2.912218E-4
9.800000E-8	4.042765E-4
9.810000E-8	5.293218E-4
9.820000E-8	6.680708E-4
9.830000E-8	7.896902E-4
9.840000E-8	9.095967E-4
9.850000E-8	1.058623E-3
9.860000E-8	1.202511E-3
9.870000E-8	1.301862E-3
9.880000E-8	1.384084E-3
9.890000E-8	1.382371E-3
9.900000E-8	1.291585E-3
9.910000E-8	1.145984E-3
9.920000E-8	1.024364E-3
9.930000E-8	8.821895E-4
9.940000E-8	8.239492E-4
9.950000E-8	7.554312E-4
9.960000E-8	7.126075E-4
9.970000E-8	6.954780E-4
9.980000E-8	7.108945E-4
9.990000E-8	7.331629E-4
1.000000E-7	8.085327E-4
1.001000E-7	8.170974E-4
1.002000E-7	7.537183E-4
1.003000E-7	5.927010E-4
1.004000E-7	3.991376E-4
1.005000E-7	2.706664E-4
1.006000E-7	2.740923E-4
1.007000E-7	3.991376E-4
1.008000E-7	6.543672E-4
1.009000E-7	8.564953E-4
1.010000E-7	9.438557E-4
1.011000E-7	8.599212E-4
1.012000E-7	6.595060E-4
1.013000E-7	5.378866E-4
1.014000E-7	5.121923E-4
1.015000E-7	6.115434E-4
1.016000E-7	7.811255E-4
1.017000E-7	8.513564E-4
1.018000E-7	8.650600E-4
1.019000E-7	7.639960E-4
1.020000E-7	6.732096E-4
1.021000E-7	6.903391E-4
1.022000E-7	7.896902E-4
1.023000E-7	9.010320E-4
1.024000E-7	9.575593E-4
1.025000E-7	8.924672E-4
1.026000E-7	7.126075E-4
1.027000E-7	5.361736E-4
1.028000E-7	4.282578E-4
1.029000E-7	3.717304E-4
1.030000E-7	4.008506E-4
1.031000E-7	4.899240E-4
1.032000E-7	6.235341E-4
1.033000E-7	7.502924E-4
1.034000E-7	8.736248E-4
1.035000E-7	9.729759E-4
1.036000E-7	1.067188E-3
1.037000E-7	1.106586E-3
1.038000E-7	1.067188E-3
1.039000E-7	9.438557E-4
1.040000E-7	8.547823E-4
1.041000E-7	7.383017E-4
1.042000E-7	7.023298E-4
1.043000E-7	6.612190E-4
1.044000E-7	7.108945E-4
1.045000E-7	7.657089E-4
1.046000E-7	8.342269E-4
1.047000E-7	9.113097E-4
1.048000E-7	9.729759E-4
1.049000E-7	9.592723E-4
1.050000E-7	8.993190E-4
1.051000E-7	8.359399E-4
1.052000E-7	7.999679E-4
1.053000E-7	7.451535E-4
1.054000E-7	7.434406E-4
1.055000E-7	7.622830E-4
1.056000E-7	7.725607E-4
1.057000E-7	7.948291E-4
1.058000E-7	7.828384E-4
1.059000E-7	7.417276E-4
1.060000E-7	6.697837E-4
1.061000E-7	5.927010E-4
1.062000E-7	5.310348E-4
1.063000E-7	5.121923E-4
1.064000E-7	5.481643E-4
1.065000E-7	6.183952E-4
1.066000E-7	7.759866E-4
1.067000E-7	9.404298E-4
1.068000E-7	1.068901E-3
1.069000E-7	1.079179E-3
1.070000E-7	9.746888E-4
1.071000E-7	8.016809E-4
1.072000E-7	5.961269E-4
1.073000E-7	4.710815E-4
1.074000E-7	4.402484E-4
1.075000E-7	5.909880E-4
1.076000E-7	8.205233E-4
1.077000E-7	1.068901E-3
1.078000E-7	1.229918E-3
1.079000E-7	1.217928E-3
1.080000E-7	1.024364E-3
1.081000E-7	6.971909E-4
1.082000E-7	4.025635E-4
1.083000E-7	1.918707E-4
1.084000E-7	1.867318E-4
1.085000E-7	3.134901E-4
1.086000E-7	5.276089E-4
1.087000E-7	7.297370E-4
1.088000E-7	8.188104E-4
1.089000E-7	7.948291E-4
1.090000E-7	6.526542E-4
1.091000E-7	4.847851E-4
1.092000E-7	3.169160E-4
1.093000E-7	2.775182E-4
1.094000E-7	3.443232E-4
1.095000E-7	4.488132E-4
1.096000E-7	5.652938E-4
1.097000E-7	6.320988E-4
1.098000E-7	6.560801E-4
1.099000E-7	6.646449E-4
1.100000E-7	6.475154E-4
1.101000E-7	6.029787E-4
1.102000E-7	5.258959E-4
1.103000E-7	3.888599E-4
1.104000E-7	2.244167E-4
1.105000E-7	1.439081E-4
1.106000E-7	1.952966E-4
1.107000E-7	4.008506E-4
1.108000E-7	7.434406E-4
1.109000E-7	1.010661E-3
1.110000E-7	1.118577E-3
1.111000E-7	1.077466E-3
1.112000E-7	9.781147E-4
1.113000E-7	8.650600E-4
1.114000E-7	8.290881E-4
1.115000E-7	8.890413E-4
1.116000E-7	9.507075E-4
1.117000E-7	1.026077E-3
1.118000E-7	1.027790E-3
1.119000E-7	9.712629E-4
1.120000E-7	9.078838E-4
1.121000E-7	8.667730E-4
1.122000E-7	8.102456E-4
1.123000E-7	8.222363E-4
1.124000E-7	9.113097E-4
1.125000E-7	1.000383E-3
1.126000E-7	1.051772E-3
1.127000E-7	1.101447E-3
1.128000E-7	1.075753E-3
1.129000E-7	1.017513E-3
1.130000E-7	9.935313E-4
1.131000E-7	9.918183E-4
1.132000E-7	1.089456E-3
1.133000E-7	1.161400E-3
1.134000E-7	1.243622E-3
1.135000E-7	1.271029E-3
1.136000E-7	1.217928E-3
1.137000E-7	1.137419E-3
1.138000E-7	1.022651E-3
1.139000E-7	8.924672E-4
1.140000E-7	7.348758E-4
1.141000E-7	6.218211E-4
1.142000E-7	5.755715E-4
1.143000E-7	6.372377E-4
1.144000E-7	7.794125E-4
1.145000E-7	9.335780E-4
1.146000E-7	1.019226E-3
1.147000E-7	1.008948E-3
1.148000E-7	8.976061E-4
1.149000E-7	7.348758E-4
1.150000E-7	6.115434E-4
1.151000E-7	5.721456E-4
1.152000E-7	6.492283E-4
1.153000E-7	7.571442E-4
1.154000E-7	8.564953E-4
1.155000E-7	8.856154E-4
1.156000E-7	8.547823E-4
1.157000E-7	7.605701E-4
1.158000E-7	6.937650E-4
1.159000E-7	6.338118E-4
1.160000E-7	5.961269E-4
1.161000E-7	6.029787E-4
1.162000E-7	7.879773E-4
1.163000E-7	1.062049E-3
1.164000E-7	1.349825E-3
1.165000E-7	1.536536E-3
1.166000E-7	1.579360E-3
1.167000E-7	1.420056E-3
1.168000E-7	1.142558E-3
1.169000E-7	7.674219E-4
1.170000E-7	4.625168E-4
1.171000E-7	3.117772E-4
1.172000E-7	3.374714E-4
1.173000E-7	4.265448E-4
1.174000E-7	5.241830E-4
1.175000E-7	5.995528E-4
1.176000E-7	6.663578E-4
1.177000E-7	6.989039E-4
1.178000E-7	8.119586E-4
1.179000E-7	9.027449E-4
1.180000E-7	9.935313E-4
1.181000E-7	1.060336E-3
1.182000E-7	1.060336E-3
1.183000E-7	9.952442E-4
1.184000E-7	8.667730E-4
1.185000E-7	7.245981E-4
1.186000E-7	6.064046E-4
1.187000E-7	6.355247E-4
1.188000E-7	7.691348E-4
1.189000E-7	9.815406E-4
1.190000E-7	1.151123E-3
1.191000E-7	1.247048E-3
1.192000E-7	1.212789E-3
1.193000E-7	1.032929E-3
1.194000E-7	7.948291E-4
1.195000E-7	5.807103E-4
1.196000E-7	4.299707E-4
1.197000E-7	3.734434E-4
1.198000E-7	4.299707E-4
1.199000E-7	5.584420E-4
1.200000E-7	7.006168E-4
1.201000E-7	8.513564E-4
1.202000E-7	9.541334E-4
1.203000E-7	9.849665E-4
1.204000E-7	9.215874E-4
1.205000E-7	7.794125E-4
1.206000E-7	5.961269E-4
1.207000E-7	4.282578E-4
1.208000E-7	3.186290E-4
1.209000E-7	3.408973E-4
1.210000E-7	4.693686E-4
1.211000E-7	6.697837E-4
1.212000E-7	8.530694E-4
1.213000E-7	1.007235E-3
1.214000E-7	1.051772E-3
1.215000E-7	9.764018E-4
1.216000E-7	8.068197E-4
1.217000E-7	6.201082E-4
1.218000E-7	4.710815E-4
1.219000E-7	4.179801E-4
1.220000E-7	4.077024E-4
1.221000E-7	4.539520E-4
1.222000E-7	5.892751E-4
1.223000E-7	7.588571E-4
1.224000E-7	9.438557E-4
1.225000E-7	1.133993E-3
1.226000E-7	1.312140E-3
1.227000E-7	1.301862E-3
1.228000E-7	1.190521E-3
1.229000E-7	9.078838E-4
1.230000E-7	6.612190E-4
1.231000E-7	5.173312E-4
1.232000E-7	4.864981E-4
1.233000E-7	5.738585E-4
1.234000E-7	7.383017E-4
1.235000E-7	8.410787E-4
1.236000E-7	8.582082E-4
1.237000E-7	7.674219E-4
1.238000E-7	6.526542E-4
1.239000E-7	5.276089E-4
1.240000E-7	4.368225E-4
1.241000E-7	3.837211E-4
1.242000E-7	3.220549E-4
1.243000E-7	3.323326E-4
1.244000E-7	3.802952E-4
1.245000E-7	5.447384E-4
1.246000E-7	7.657089E-4
1.247000E-7	1.062049E-3
1.248000E-7	1.336121E-3
1.249000E-7	1.497139E-3
1.250000E-7	1.509129E-3
1.251000E-7	1.303575E-3
1.252000E-7	1.000383E-3
1.253000E-7	7.211722E-4
1.254000E-7	5.601549E-4
1.255000E-7	6.081175E-4
1.256000E-7	8.205233E-4
1.257000E-7	1.075753E-3
1.258000E-7	1.238483E-3
1.259000E-7	1.257326E-3
1.260000E-7	1.106586E-3
1.261000E-7	9.164485E-4
1.262000E-7	6.937650E-4
1.263000E-7	5.344607E-4
1.264000E-7	4.659427E-4
1.265000E-7	4.710815E-4
1.266000E-7	5.310348E-4
1.267000E-7	5.995528E-4
1.268000E-7	6.338118E-4
1.269000E-7	6.372377E-4
1.270000E-7	6.372377E-4
1.271000E-7	6.526542E-4
1.272000E-7	6.920521E-4
1.273000E-7	7.263111E-4
1.274000E-7	7.639960E-4
1.275000E-7	7.657089E-4
1.276000E-7	8.136715E-4
1.277000E-7	8.513564E-4
1.278000E-7	8.547823E-4
1.279000E-7	8.427917E-4
1.280000E-7	7.896902E-4
1.281000E-7	7.108945E-4
1.282000E-7	5.635808E-4
1.283000E-7	4.864981E-4
1.284000E-7	4.950628E-4
1.285000E-7	6.509413E-4
1.286000E-7	8.564953E-4
1.287000E-7	1.041494E-3
1.288000E-7	1.125428E-3
1.289000E-7	1.055197E-3
1.290000E-7	8.958931E-4
1.291000E-7	6.834873E-4
1.292000E-7	5.430254E-4
1.293000E-7	5.584420E-4
1.294000E-7	6.869132E-4
1.295000E-7	8.993190E-4
1.296000E-7	1.074040E-3
1.297000E-7	1.133993E-3
1.298000E-7	1.031216E-3
1.299000E-7	7.982550E-4
1.300000E-7	5.567290E-4
1.301000E-7	3.871470E-4
1.302000E-7	3.768693E-4
1.303000E-7	5.276089E-4
1.304000E-7	7.126075E-4
1.305000E-7	8.924672E-4
1.306000E-7	9.918183E-4
1.307000E-7	9.746888E-4
1.308000E-7	9.181615E-4
1.309000E-7	8.719118E-4
1.310000E-7	8.958931E-4
1.311000E-7	9.866795E-4
1.312000E-7	1.111725E-3
1.313000E-7	1.255613E-3
1.314000E-7	1.325844E-3
1.315000E-7	1.322418E-3
1.316000E-7	1.140845E-3
1.317000E-7	8.376528E-4
1.318000E-7	4.882110E-4
1.319000E-7	2.295556E-4
1.320000E-7	1.113620E-4
1.321000E-7	1.798800E-4
1.322000E-7	3.237678E-4
1.323000E-7	5.139053E-4
1.324000E-7	6.937650E-4
1.325000E-7	7.828384E-4
1.326000E-7	7.759866E-4
1.327000E-7	7.811255E-4
1.328000E-7	8.136715E-4
1.329000E-7	8.684859E-4
1.330000E-7	9.267262E-4
1.331000E-7	9.198744E-4
1.332000E-7	8.787636E-4
1.333000E-7	7.811255E-4
1.334000E-7	7.194593E-4
1.335000E-7	6.612190E-4
1.336000E-7	6.269600E-4
1.337000E-7	5.858492E-4
1.338000E-7	5.447384E-4
1.339000E-7	5.241830E-4
1.340000E-7	5.036276E-4
1.341000E-7	5.053405E-4
1.342000E-7	5.104794E-4
1.343000E-7	4.779333E-4
1.344000E-7	3.991376E-4
1.345000E-7	3.254808E-4
1.346000E-7	2.740923E-4
1.347000E-7	2.758052E-4
1.348000E-7	3.700175E-4
1.349000E-7	4.556650E-4
1.350000E-7	5.173312E-4
1.351000E-7	5.224700E-4
1.352000E-7	5.430254E-4
1.353000E-7	6.183952E-4
1.354000E-7	7.143204E-4
1.355000E-7	8.684859E-4
1.356000E-7	1.026077E-3
1.357000E-7	1.101447E-3
1.358000E-7	1.051772E-3
1.359000E-7	9.010320E-4
1.360000E-7	7.040427E-4
1.361000E-7	5.087664E-4
1.362000E-7	4.265448E-4
1.363000E-7	4.933499E-4
1.364000E-7	6.543672E-4
1.365000E-7	7.999679E-4
1.366000E-7	8.890413E-4
1.367000E-7	8.633471E-4
1.368000E-7	7.554312E-4
1.369000E-7	5.944139E-4
1.370000E-7	4.676556E-4
1.371000E-7	4.042765E-4
1.372000E-7	4.162671E-4
1.373000E-7	5.344607E-4
1.374000E-7	6.492283E-4
1.375000E-7	7.091816E-4
1.376000E-7	6.817744E-4
1.377000E-7	5.430254E-4
1.378000E-7	3.494621E-4
1.379000E-7	2.124261E-4
1.380000E-7	2.209908E-4
1.381000E-7	3.871470E-4
1.382000E-7	5.944139E-4
1.383000E-7	7.468665E-4
1.384000E-7	7.588571E-4
1.385000E-7	6.475154E-4
1.386000E-7	4.590909E-4
1.387000E-7	2.963606E-4
1.388000E-7	2.929347E-4
1.389000E-7	4.008506E-4
1.390000E-7	5.670067E-4
1.391000E-7	6.954780E-4
1.392000E-7	7.485794E-4
1.393000E-7	7.177463E-4
1.394000E-7	6.800614E-4
1.395000E-7	6.406636E-4
1.396000E-7	6.389506E-4
1.397000E-7	7.194593E-4
1.398000E-7	7.999679E-4
1.399000E-7	8.839025E-4
1.400000E-7	8.308010E-4
1.401000E-7	7.108945E-4
1.402000E-7	5.173312E-4
1.403000E-7	3.340455E-4
1.404000E-7	2.124261E-4
1.405000E-7	1.678894E-4
1.406000E-7	1.987225E-4
1.407000E-7	1.764541E-4
1.408000E-7	1.833059E-4
1.409000E-7	1.918707E-4
1.410000E-7	2.415462E-4
1.411000E-7	3.734434E-4
1.412000E-7	5.772844E-4
1.413000E-7	7.691348E-4
1.414000E-7	9.010320E-4
1.415000E-7	9.198744E-4
1.416000E-7	8.770507E-4
1.417000E-7	7.297370E-4
1.418000E-7	5.995528E-4
1.419000E-7	5.121923E-4
1.420000E-7	5.601549E-4
1.421000E-7	6.680708E-4
1.422000E-7	7.776996E-4
1.423000E-7	9.198744E-4
1.424000E-7	9.746888E-4
1.425000E-7	9.147356E-4
1.426000E-7	7.365888E-4
1.427000E-7	5.241830E-4
1.428000E-7	3.700175E-4
1.429000E-7	3.237678E-4
1.430000E-7	4.162671E-4
1.431000E-7	5.344607E-4
1.432000E-7	6.697837E-4
1.433000E-7	7.502924E-4
1.434000E-7	7.999679E-4
1.435000E-7	8.136715E-4
1.436000E-7	8.342269E-4
1.437000E-7	8.410787E-4
1.438000E-7	8.445046E-4
1.439000E-7	7.691348E-4
1.440000E-7	6.269600E-4
1.441000E-7	5.430254E-4
1.442000E-7	5.789974E-4
1.443000E-7	7.331629E-4
1.444000E-7	8.804766E-4
1.445000E-7	8.958931E-4
1.446000E-7	7.931161E-4
1.447000E-7	6.303859E-4
1.448000E-7	4.710815E-4
1.449000E-7	4.299707E-4
1.450000E-7	5.601549E-4
1.451000E-7	8.119586E-4
1.452000E-7	1.089456E-3
1.453000E-7	1.216215E-3
1.454000E-7	1.209363E-3
1.455000E-7	1.007235E-3
1.456000E-7	7.657089E-4
1.457000E-7	5.789974E-4
1.458000E-7	5.430254E-4
1.459000E-7	6.509413E-4
1.460000E-7	8.787636E-4
1.461000E-7	1.048346E-3
1.462000E-7	1.139132E-3
1.463000E-7	1.077466E-3
1.464000E-7	9.027449E-4
1.465000E-7	6.869132E-4
1.466000E-7	4.676556E-4
1.467000E-7	3.117772E-4
1.468000E-7	2.758052E-4
1.469000E-7	3.614527E-4
1.470000E-7	5.019146E-4
1.471000E-7	6.509413E-4
1.472000E-7	7.794125E-4
1.473000E-7	8.085327E-4
1.474000E-7	7.931161E-4
1.475000E-7	6.937650E-4
1.476000E-7	6.286729E-4
1.477000E-7	6.218211E-4
1.478000E-7	6.732096E-4
1.479000E-7	7.057557E-4
1.480000E-7	7.057557E-4
1.481000E-7	6.372377E-4
1.482000E-7	5.789974E-4
1.483000E-7	5.978398E-4
1.484000E-7	7.040427E-4
1.485000E-7	8.102456E-4
1.486000E-7	8.839025E-4
1.487000E-7	9.267262E-4
1.488000E-7	8.547823E-4
1.489000E-7	7.674219E-4
1.490000E-7	7.023298E-4
1.491000E-7	6.543672E-4
1.492000E-7	6.663578E-4
1.493000E-7	7.674219E-4
1.494000E-7	8.513564E-4
1.495000E-7	9.078838E-4
1.496000E-7	9.661241E-4
1.497000E-7	9.883924E-4
1.498000E-7	9.883924E-4
1.499000E-7	9.370039E-4
1.500000E-7	8.513564E-4
1.501000E-7	7.725607E-4
1.502000E-7	7.023298E-4
1.503000E-7	6.680708E-4
1.504000E-7	6.766355E-4
1.505000E-7	7.434406E-4
1.506000E-7	7.965420E-4
1.507000E-7	8.342269E-4
1.508000E-7	7.914032E-4
1.509000E-7	7.639960E-4
1.510000E-7	7.400147E-4
1.511000E-7	7.177463E-4
1.512000E-7	7.365888E-4
1.513000E-7	8.290881E-4
1.514000E-7	8.958931E-4
1.515000E-7	9.661241E-4
1.516000E-7	1.014087E-3
1.517000E-7	9.901054E-4
1.518000E-7	9.113097E-4
1.519000E-7	7.811255E-4
1.520000E-7	7.091816E-4
1.521000E-7	6.783485E-4
1.522000E-7	7.143204E-4
1.523000E-7	8.359399E-4
1.524000E-7	9.455687E-4
1.525000E-7	1.027790E-3
1.526000E-7	1.038068E-3
1.527000E-7	9.764018E-4
1.528000E-7	8.667730E-4
1.529000E-7	8.136715E-4
1.530000E-7	7.280240E-4
1.531000E-7	6.920521E-4
1.532000E-7	6.355247E-4
1.533000E-7	6.183952E-4
1.534000E-7	6.252470E-4
1.535000E-7	6.218211E-4
1.536000E-7	5.944139E-4
1.537000E-7	6.303859E-4
1.538000E-7	6.749226E-4
1.539000E-7	6.954780E-4
1.540000E-7	7.434406E-4
1.541000E-7	8.256622E-4
1.542000E-7	9.524205E-4
1.543000E-7	1.074040E-3
1.544000E-7	1.181956E-3
1.545000E-7	1.224780E-3
1.546000E-7	1.231631E-3
1.547000E-7	1.149410E-3
1.548000E-7	1.103160E-3
1.549000E-7	1.075753E-3
1.550000E-7	1.103160E-3
1.551000E-7	1.089456E-3
1.552000E-7	1.012374E-3
1.553000E-7	8.633471E-4
1.554000E-7	6.989039E-4
1.555000E-7	5.584420E-4
1.556000E-7	5.670067E-4
1.557000E-7	6.714967E-4
1.558000E-7	8.445046E-4
1.559000E-7	9.952442E-4
1.560000E-7	1.010661E-3
1.561000E-7	9.078838E-4
1.562000E-7	6.612190E-4
1.563000E-7	3.820081E-4
1.564000E-7	8.395482E-5
1.565000E-7	-8.220134E-5
1.566000E-7	-9.076609E-5
1.567000E-7	6.511237E-5
1.568000E-7	3.152031E-4
1.569000E-7	5.652938E-4
1.570000E-7	7.845514E-4
1.571000E-7	8.582082E-4
1.572000E-7	8.308010E-4
1.573000E-7	6.577931E-4
1.574000E-7	5.344607E-4
1.575000E-7	4.488132E-4
1.576000E-7	4.316837E-4
1.577000E-7	4.933499E-4
1.578000E-7	5.721456E-4
1.579000E-7	7.862643E-4
1.580000E-7	9.524205E-4
1.581000E-7	1.058623E-3
1.582000E-7	1.139132E-3
1.583000E-7	1.157974E-3
1.584000E-7	1.116864E-3
1.585000E-7	1.005522E-3
1.586000E-7	9.198744E-4
1.587000E-7	8.153845E-4
1.588000E-7	7.040427E-4
1.589000E-7	6.235341E-4
1.590000E-7	6.201082E-4
1.591000E-7	6.595060E-4
1.592000E-7	7.485794E-4
1.593000E-7	7.999679E-4
1.594000E-7	8.410787E-4
1.595000E-7	7.794125E-4
1.596000E-7	6.971909E-4
1.597000E-7	5.789974E-4
1.598000E-7	5.395995E-4
1.599000E-7	4.950628E-4
1.600000E-7	5.241830E-4
1.601000E-7	5.413125E-4
1.602000E-7	5.995528E-4
1.603000E-7	6.098305E-4
1.604000E-7	6.663578E-4
1.605000E-7	7.314499E-4
1.606000E-7	8.856154E-4
1.607000E-7	1.046633E-3
1.608000E-7	1.181956E-3
1.609000E-7	1.269316E-3
1.610000E-7	1.317279E-3
1.611000E-7	1.303575E-3
1.612000E-7	1.259039E-3
1.613000E-7	1.149410E-3
1.614000E-7	1.055197E-3
1.615000E-7	9.952442E-4
1.616000E-7	9.644111E-4
1.617000E-7	8.839025E-4
1.618000E-7	8.136715E-4
1.619000E-7	7.502924E-4
1.620000E-7	7.588571E-4
1.621000E-7	7.177463E-4
1.622000E-7	6.149693E-4
1.623000E-7	4.608038E-4
1.624000E-7	3.220549E-4
1.625000E-7	3.169160E-4
1.626000E-7	4.368225E-4
1.627000E-7	6.629319E-4
1.628000E-7	9.404298E-4
1.629000E-7	1.180243E-3
1.630000E-7	1.300149E-3
1.631000E-7	1.286446E-3
1.632000E-7	1.217928E-3
1.633000E-7	1.188808E-3
1.634000E-7	1.175104E-3
1.635000E-7	1.163113E-3
1.636000E-7	1.103160E-3
1.637000E-7	9.301521E-4
1.638000E-7	7.108945E-4
1.639000E-7	4.590909E-4
1.640000E-7	3.066383E-4
1.641000E-7	2.449721E-4
1.642000E-7	2.912218E-4
1.643000E-7	4.128412E-4
1.644000E-7	5.858492E-4
1.645000E-7	7.417276E-4
1.646000E-7	8.616341E-4
1.647000E-7	9.764018E-4
1.648000E-7	1.015800E-3
1.649000E-7	9.986701E-4
1.650000E-7	9.147356E-4
1.651000E-7	7.914032E-4
1.652000E-7	6.749226E-4
1.653000E-7	6.286729E-4
1.654000E-7	6.852003E-4
1.655000E-7	8.153845E-4
1.656000E-7	1.026077E-3
1.657000E-7	1.175104E-3
1.658000E-7	1.289872E-3
1.659000E-7	1.252187E-3
1.660000E-7	1.113438E-3
1.661000E-7	8.582082E-4
1.662000E-7	6.389506E-4
1.663000E-7	5.002017E-4
1.664000E-7	5.378866E-4
1.665000E-7	6.235341E-4
1.666000E-7	8.513564E-4
1.667000E-7	1.007235E-3
1.668000E-7	1.110012E-3
1.669000E-7	1.103160E-3
1.670000E-7	9.489946E-4
1.671000E-7	7.622830E-4
1.672000E-7	6.560801E-4
1.673000E-7	6.543672E-4
1.674000E-7	6.852003E-4
1.675000E-7	8.016809E-4
1.676000E-7	8.804766E-4
1.677000E-7	8.993190E-4
1.678000E-7	8.308010E-4
1.679000E-7	7.211722E-4
1.680000E-7	5.892751E-4
1.681000E-7	5.053405E-4
1.682000E-7	5.430254E-4
1.683000E-7	6.320988E-4
1.684000E-7	8.205233E-4
1.685000E-7	9.284392E-4
1.686000E-7	9.421428E-4
1.687000E-7	8.479305E-4
1.688000E-7	6.886262E-4
1.689000E-7	5.361736E-4
1.690000E-7	4.693686E-4
1.691000E-7	4.762204E-4
1.692000E-7	5.293218E-4
1.693000E-7	6.440895E-4
1.694000E-7	7.537183E-4
1.695000E-7	8.102456E-4
1.696000E-7	8.308010E-4
1.697000E-7	8.188104E-4
1.698000E-7	7.845514E-4
1.699000E-7	7.400147E-4
1.700000E-7	7.091816E-4
1.701000E-7	6.852003E-4
1.702000E-7	6.800614E-4
1.703000E-7	7.588571E-4
1.704000E-7	8.393658E-4
1.705000E-7	8.684859E-4
1.706000E-7	8.136715E-4
1.707000E-7	6.800614E-4
1.708000E-7	5.241830E-4
1.709000E-7	4.094153E-4
1.710000E-7	3.648786E-4
1.711000E-7	4.590909E-4
1.712000E-7	6.132564E-4
1.713000E-7	8.068197E-4
1.714000E-7	9.626982E-4
1.715000E-7	1.058623E-3
1.716000E-7	1.043207E-3
1.717000E-7	1.017513E-3
1.718000E-7	9.387169E-4
1.719000E-7	8.153845E-4
1.720000E-7	7.297370E-4
1.721000E-7	7.074686E-4
1.722000E-7	6.834873E-4
1.723000E-7	6.697837E-4
1.724000E-7	6.920521E-4
1.725000E-7	6.783485E-4
1.726000E-7	6.201082E-4
1.727000E-7	5.858492E-4
1.728000E-7	5.019146E-4
1.729000E-7	4.984887E-4
1.730000E-7	5.207571E-4
1.731000E-7	5.601549E-4
1.732000E-7	6.526542E-4
1.733000E-7	7.245981E-4
1.734000E-7	7.879773E-4
1.735000E-7	8.856154E-4
1.736000E-7	9.661241E-4
1.737000E-7	9.969572E-4
1.738000E-7	1.008948E-3
1.739000E-7	9.746888E-4
1.740000E-7	9.489946E-4
1.741000E-7	9.233003E-4
1.742000E-7	9.078838E-4
1.743000E-7	8.616341E-4
1.744000E-7	7.588571E-4
1.745000E-7	5.892751E-4
1.746000E-7	4.299707E-4
1.747000E-7	3.528880E-4
1.748000E-7	4.008506E-4
1.749000E-7	5.533031E-4
1.750000E-7	7.194593E-4
1.751000E-7	8.684859E-4
1.752000E-7	9.181615E-4
1.753000E-7	9.541334E-4
1.754000E-7	9.507075E-4
1.755000E-7	9.370039E-4
1.756000E-7	9.198744E-4
1.757000E-7	8.102456E-4
1.758000E-7	5.927010E-4
1.759000E-7	3.546009E-4
1.760000E-7	2.090002E-4
1.761000E-7	1.730282E-4
1.762000E-7	3.460362E-4
1.763000E-7	5.978398E-4
1.764000E-7	8.890413E-4
1.765000E-7	1.024364E-3
1.766000E-7	1.015800E-3
1.767000E-7	9.267262E-4
1.768000E-7	7.468665E-4
1.769000E-7	5.807103E-4
1.770000E-7	4.573779E-4
1.771000E-7	3.614527E-4
1.772000E-7	3.563139E-4
1.773000E-7	3.854340E-4
1.774000E-7	5.258959E-4
1.775000E-7	7.314499E-4
1.776000E-7	9.352910E-4
1.777000E-7	1.099734E-3
1.778000E-7	1.145984E-3
1.779000E-7	1.055197E-3
1.780000E-7	8.564953E-4
1.781000E-7	6.286729E-4
1.782000E-7	4.556650E-4
1.783000E-7	4.162671E-4
1.784000E-7	4.916369E-4
1.785000E-7	5.892751E-4
1.786000E-7	7.348758E-4
1.787000E-7	7.759866E-4
1.788000E-7	7.245981E-4
1.789000E-7	6.081175E-4
1.790000E-7	4.693686E-4
1.791000E-7	3.683045E-4
1.792000E-7	3.614527E-4
1.793000E-7	4.248319E-4
1.794000E-7	5.515902E-4
1.795000E-7	7.451535E-4
1.796000E-7	9.027449E-4
1.797000E-7	8.873284E-4
1.798000E-7	7.811255E-4
1.799000E-7	6.286729E-4
1.800000E-7	4.179801E-4
1.801000E-7	2.877959E-4
1.802000E-7	2.175649E-4
1.803000E-7	2.038613E-4
1.804000E-7	2.569628E-4
1.805000E-7	3.254808E-4
1.806000E-7	3.888599E-4
1.807000E-7	4.419614E-4
1.808000E-7	5.361736E-4
1.809000E-7	6.218211E-4
1.810000E-7	7.143204E-4
1.811000E-7	8.085327E-4
1.812000E-7	8.856154E-4
1.813000E-7	8.547823E-4
1.814000E-7	7.742737E-4
1.815000E-7	6.852003E-4
1.816000E-7	6.355247E-4
1.817000E-7	6.286729E-4
1.818000E-7	6.029787E-4
1.819000E-7	6.029787E-4
1.820000E-7	5.824233E-4
1.821000E-7	5.567290E-4
1.822000E-7	5.121923E-4
1.823000E-7	5.190441E-4
1.824000E-7	5.481643E-4
1.825000E-7	5.584420E-4
1.826000E-7	5.772844E-4
1.827000E-7	5.567290E-4
1.828000E-7	5.036276E-4
1.829000E-7	3.939988E-4
1.830000E-7	3.032124E-4
1.831000E-7	2.655275E-4
1.832000E-7	3.049254E-4
1.833000E-7	4.265448E-4
1.834000E-7	6.389506E-4
1.835000E-7	7.639960E-4
1.836000E-7	8.582082E-4
1.837000E-7	8.924672E-4
1.838000E-7	9.215874E-4
1.839000E-7	9.318651E-4
1.840000E-7	9.644111E-4
1.841000E-7	1.036355E-3
1.842000E-7	1.144271E-3
1.843000E-7	1.228205E-3
1.844000E-7	1.274455E-3
1.845000E-7	1.207650E-3
1.846000E-7	1.084318E-3
1.847000E-7	9.198744E-4
1.848000E-7	7.091816E-4
1.849000E-7	6.201082E-4
1.850000E-7	6.338118E-4
1.851000E-7	7.622830E-4
1.852000E-7	1.000383E-3
1.853000E-7	1.190521E-3
1.854000E-7	1.243622E-3
1.855000E-7	1.137419E-3
1.856000E-7	8.907543E-4
1.857000E-7	5.995528E-4
1.858000E-7	3.957117E-4
1.859000E-7	3.751563E-4
1.860000E-7	5.344607E-4
1.861000E-7	8.308010E-4
1.862000E-7	1.137419E-3
1.863000E-7	1.330982E-3
1.864000E-7	1.341260E-3
1.865000E-7	1.207650E-3
1.866000E-7	1.034642E-3
1.867000E-7	8.582082E-4
1.868000E-7	8.051068E-4
1.869000E-7	7.879773E-4
1.870000E-7	8.513564E-4
1.871000E-7	8.719118E-4
1.872000E-7	8.616341E-4
1.873000E-7	7.708478E-4
1.874000E-7	6.440895E-4
1.875000E-7	5.121923E-4
1.876000E-7	4.556650E-4
1.877000E-7	4.847851E-4
1.878000E-7	5.464513E-4
1.879000E-7	6.064046E-4
1.880000E-7	6.218211E-4
1.881000E-7	5.515902E-4
1.882000E-7	5.190441E-4
1.883000E-7	4.556650E-4
1.884000E-7	4.590909E-4
1.885000E-7	5.224700E-4
1.886000E-7	6.286729E-4
1.887000E-7	7.502924E-4
1.888000E-7	8.684859E-4
1.889000E-7	8.890413E-4
1.890000E-7	8.582082E-4
1.891000E-7	8.153845E-4
1.892000E-7	8.239492E-4
1.893000E-7	8.462176E-4
1.894000E-7	9.335780E-4
1.895000E-7	1.019226E-3
1.896000E-7	1.055197E-3
1.897000E-7	1.072327E-3
1.898000E-7	1.020938E-3
1.899000E-7	9.352910E-4
1.900000E-7	8.976061E-4
1.901000E-7	8.924672E-4
1.902000E-7	9.078838E-4
1.903000E-7	9.095967E-4
1.904000E-7	9.198744E-4
1.905000E-7	9.883924E-4
1.906000E-7	1.111725E-3
1.907000E-7	1.216215E-3
1.908000E-7	1.277881E-3
1.909000E-7	1.305288E-3
1.910000E-7	1.313853E-3
1.911000E-7	1.301862E-3
1.912000E-7	1.329270E-3
1.913000E-7	1.341260E-3
1.914000E-7	1.358390E-3
1.915000E-7	1.361816E-3
1.916000E-7	1.339547E-3
1.917000E-7	1.240196E-3
1.918000E-7	1.092882E-3
1.919000E-7	9.318651E-4
1.920000E-7	7.742737E-4
1.921000E-7	6.320988E-4
1.922000E-7	5.344607E-4
1.923000E-7	4.676556E-4
1.924000E-7	4.419614E-4
1.925000E-7	4.316837E-4
1.926000E-7	4.676556E-4
1.927000E-7	5.515902E-4
1.928000E-7	6.697837E-4
1.929000E-7	7.554312E-4
1.930000E-7	8.153845E-4
1.931000E-7	7.657089E-4
1.932000E-7	6.749226E-4
1.933000E-7	5.961269E-4
1.934000E-7	5.464513E-4
1.935000E-7	5.755715E-4
1.936000E-7	7.211722E-4
1.937000E-7	9.233003E-4
1.938000E-7	1.044920E-3
1.939000E-7	1.104873E-3
1.940000E-7	1.070614E-3
1.941000E-7	1.056910E-3
1.942000E-7	1.024364E-3
1.943000E-7	1.012374E-3
1.944000E-7	9.969572E-4
1.945000E-7	9.712629E-4
1.946000E-7	9.712629E-4
1.947000E-7	9.695500E-4
1.948000E-7	1.041494E-3
1.949000E-7	1.101447E-3
1.950000E-7	1.120290E-3
1.951000E-7	1.080892E-3
1.952000E-7	1.003809E-3
1.953000E-7	8.770507E-4
1.954000E-7	8.479305E-4
1.955000E-7	7.811255E-4
1.956000E-7	7.520053E-4
1.957000E-7	7.468665E-4
1.958000E-7	7.228852E-4
1.959000E-7	7.622830E-4
1.960000E-7	7.896902E-4
1.961000E-7	8.308010E-4
1.962000E-7	8.496435E-4
1.963000E-7	8.462176E-4
1.964000E-7	8.410787E-4
1.965000E-7	8.325140E-4
1.966000E-7	8.701989E-4
1.967000E-7	9.215874E-4
1.968000E-7	9.952442E-4
1.969000E-7	1.062049E-3
1.970000E-7	1.000383E-3
1.971000E-7	8.342269E-4
1.972000E-7	6.320988E-4
1.973000E-7	3.854340E-4
1.974000E-7	2.209908E-4
1.975000E-7	1.576117E-4
1.976000E-7	2.261297E-4
1.977000E-7	3.186290E-4
1.978000E-7	4.179801E-4
1.979000E-7	5.327477E-4
1.980000E-7	6.406636E-4
1.981000E-7	7.468665E-4
1.982000E-7	8.650600E-4
1.983000E-7	9.901054E-4
1.984000E-7	1.062049E-3
1.985000E-7	9.935313E-4
1.986000E-7	8.153845E-4
1.987000E-7	5.378866E-4
1.988000E-7	2.638146E-4
1.989000E-7	7.367712E-5
1.990000E-7	2.742747E-5
1.991000E-7	1.079361E-4
1.992000E-7	3.477491E-4
1.993000E-7	6.663578E-4
1.994000E-7	1.029503E-3
1.995000E-7	1.283020E-3
1.996000E-7	1.385797E-3
1.997000E-7	1.279594E-3
1.998000E-7	9.798277E-4
1.999000E-7	6.458024E-4
2.000000E-7	4.265448E-4
2.001000E-7	3.323326E-4
